##NAMES=Abhurite
##RRUFFID=R060227
##IDEAL CHEMISTRY=Sn^2+^_21_O_6_(OH)_14_Cl_16_
##LOCALITY=Wreck of the SS Cheerful, 14 miles NNW of St. Ives, Cornwall, England
##OWNER=RRUFF
##SOURCE=Michael Scott
##DESCRIPTION=Aggregate of tan colored platy crystals
##STATUS=The identification of this mineral is confirmed by single-crystal X-ray diffraction and chemical analysis
##URL=https://www.rruff.net/odr/rruff_sample/R060227
##MEASURED CHEMISTRY=Sn^2+^_21.00_Cl_16.00_(OH)_14.00_O_6_ ; (OH) estimated by difference
##DIFFRACTION SAMPLE DESCRIPTION=Single crystal, powder profile is calculated
##CELL PARAMETERS=a: 9.981 b: 9.981 c: 43.84 alpha: 90 beta: 90 gamma: 120 volume: 3782 crystal system: hexagonal
##FILETYPE=Raman RAW
##RAMAN WAVELENGTH=532

86.13089, 18.53376
88.05936, 20.65699
89.98782, 22.72683
91.91629, 23.24405
93.84476, 20.94686
95.77322, 19.90040
97.70169, 21.91392
99.63016, 26.45477
101.5586, 28.94813
103.4871, 27.39084
105.4156, 24.71729
107.3440, 23.13548
109.2725, 22.67308
111.2010, 23.33469
113.1294, 23.06344
115.0579, 22.24794
116.9864, 29.53636
118.9148, 40.91750
120.8433, 62.16004
122.7718, 101.3981
124.7002, 156.3919
126.6287, 229.4554
128.5572, 320.8459
130.4856, 435.0999
132.4141, 554.8651
134.3426, 680.7604
136.2710, 811.7670
138.1995, 946.9849
140.1280, 1093.975
142.0564, 1235.842
143.9849, 1369.831
145.9134, 1497.206
147.8418, 1606.094
149.7703, 1687.744
151.6988, 1737.865
153.6272, 1694.156
155.5557, 1623.416
157.4842, 1561.106
159.4126, 1513.817
161.3411, 1476.483
163.2696, 1458.125
165.1980, 1464.145
167.1265, 1485.342
169.0550, 1503.904
170.9834, 1513.071
172.9119, 1528.872
174.8404, 1555.653
176.7688, 1593.722
178.6973, 1639.942
180.6258, 1704.243
182.5542, 1774.270
184.4827, 1827.502
186.4112, 1849.975
188.3396, 1872.887
190.2681, 1904.555
192.1966, 1933.338
194.1250, 1999.185
196.0535, 2116.500
197.9820, 2270.603
199.9104, 2438.765
201.8389, 2675.858
203.7674, 2882.251
205.6958, 3018.018
207.6243, 3091.521
209.5528, 3097.596
211.4812, 3005.745
213.4097, 2845.302
215.3382, 2672.693
217.2666, 2460.699
219.1951, 2261.484
221.1236, 2094.227
223.0520, 1956.129
224.9805, 1847.991
226.9090, 1785.644
228.8374, 1747.556
230.7659, 1691.114
232.6944, 1610.927
234.6228, 1523.039
236.5513, 1429.469
238.4798, 1320.348
240.4082, 1238.429
242.3367, 1184.749
244.2652, 1158.319
246.1936, 1153.267
248.1221, 1179.816
250.0506, 1213.734
251.9790, 1252.320
253.9075, 1299.752
255.8360, 1328.476
257.7644, 1335.707
259.6929, 1321.440
261.6214, 1288.657
263.5498, 1222.018
265.4783, 1150.591
267.4068, 1078.201
269.3352, 1005.251
271.2637, 939.4431
273.1922, 884.9365
275.1206, 836.9420
277.0491, 792.3270
278.9776, 754.5510
280.9060, 715.5820
282.8345, 672.5573
284.7630, 627.5155
286.6914, 584.9417
288.6199, 542.6525
290.5484, 504.9651
292.4768, 474.7497
294.4053, 452.2338
296.3338, 433.9628
298.2622, 421.2045
300.1907, 412.3101
302.1192, 405.0305
304.0476, 398.3242
305.9761, 393.7914
307.9046, 393.1525
309.8330, 396.1636
311.7615, 400.3635
313.6900, 404.8041
315.6184, 409.9261
317.5469, 416.7786
319.4754, 425.6275
321.4038, 435.6549
323.3323, 446.3380
325.2608, 457.7013
327.1892, 470.8062
329.1177, 486.3546
331.0462, 503.0481
332.9747, 520.5757
334.9031, 539.1335
336.8316, 557.3616
338.7601, 574.9269
340.6885, 591.7736
342.6170, 607.6393
344.5455, 621.2490
346.4739, 634.9384
348.4024, 650.5381
350.3309, 668.1221
352.2593, 685.2960
354.1878, 701.9197
356.1163, 717.9836
358.0447, 732.3362
359.9732, 746.3254
361.9017, 755.3944
363.8301, 757.6119
365.7586, 753.8571
367.6871, 746.5541
369.6155, 735.3146
371.5440, 720.6982
373.4725, 702.8699
375.4009, 681.9932
377.3294, 660.7833
379.2579, 640.7288
381.1863, 621.5773
383.1148, 602.5284
385.0433, 583.8271
386.9717, 564.5466
388.9002, 544.0824
390.8287, 522.9609
392.7571, 503.2209
394.6856, 484.1524
396.6141, 466.7338
398.5425, 452.1215
400.4710, 440.6647
402.3995, 429.5123
404.3279, 417.7119
406.2564, 406.0546
408.1849, 395.8839
410.1133, 387.6779
412.0418, 380.6170
413.9703, 374.2375
415.8987, 368.4385
417.8272, 363.5717
419.7557, 360.4978
421.6841, 358.5668
423.6126, 357.2044
425.5411, 355.9910
427.4695, 355.7539
429.3980, 357.5022
431.3265, 360.1371
433.2549, 362.1349
435.1834, 362.6035
437.1119, 363.8425
439.0403, 365.9633
440.9688, 368.9951
442.8973, 372.8345
444.8257, 377.9496
446.7542, 383.1106
448.6827, 387.9318
450.6111, 392.9554
452.5396, 397.1742
454.4681, 399.6689
456.3965, 401.4482
458.3250, 404.0013
460.2535, 407.7836
462.1819, 411.5877
464.1104, 415.3975
466.0389, 419.3547
467.9673, 423.4976
469.8958, 427.9722
471.8243, 431.0153
473.7527, 431.5098
475.6812, 429.1763
477.6097, 424.1345
479.5381, 416.5931
481.4666, 406.6722
483.3951, 394.3305
485.3235, 380.5304
487.2520, 366.6596
489.1805, 352.5027
491.1089, 338.3359
493.0374, 324.9175
494.9659, 313.0387
496.8943, 302.5452
498.8228, 293.5727
500.7513, 285.6344
502.6797, 277.7266
504.6082, 269.4581
506.5367, 261.7328
508.4651, 254.8842
510.3936, 248.5125
512.3221, 243.4184
514.2505, 240.2868
516.1790, 238.3288
518.1075, 236.5378
520.0359, 234.5928
521.9644, 233.1901
523.8929, 232.6687
525.8214, 232.7675
527.7498, 232.7983
529.6783, 232.3349
531.6068, 231.5427
533.5352, 230.4634
535.4637, 229.2645
537.3922, 228.3512
539.3206, 228.1787
541.2491, 228.0747
543.1776, 227.7450
545.1060, 227.0609
547.0345, 225.8560
548.9630, 223.6270
550.8914, 221.0504
552.8199, 218.6898
554.7484, 216.9864
556.6768, 214.9935
558.6053, 212.7072
560.5338, 210.7354
562.4622, 209.7581
564.3907, 209.1410
566.3192, 207.6481
568.2476, 204.9899
570.1761, 201.8927
572.1046, 199.5806
574.0330, 197.7961
575.9615, 196.1613
577.8900, 194.6442
579.8184, 193.5579
581.7469, 192.7268
583.6754, 191.6946
585.6038, 190.4158
587.5323, 188.8569
589.4608, 187.4290
591.3892, 186.2629
593.3177, 185.4280
595.2462, 184.6628
597.1746, 183.8457
599.1031, 183.3022
601.0316, 182.4355
602.9600, 180.5416
604.8885, 178.2931
606.8170, 177.2705
608.7454, 178.0834
610.6739, 178.5251
612.6024, 177.5115
614.5308, 175.6714
616.4593, 174.8389
618.3878, 175.4891
620.3162, 175.8892
622.2447, 175.3592
624.1732, 174.5577
626.1016, 174.1278
628.0301, 173.9450
629.9586, 173.7489
631.8870, 173.5928
633.8155, 173.8835
635.7440, 173.7533
637.6724, 172.5309
639.6009, 171.2548
641.5294, 170.7481
643.4578, 170.9399
645.3863, 170.9351
647.3148, 170.6497
649.2432, 170.3523
651.1717, 170.1900
653.1002, 169.8422
655.0286, 169.3237
656.9571, 168.3932
658.8856, 167.7572
660.8140, 167.7972
662.7425, 168.7826
664.6710, 169.0608
666.5994, 167.8336
668.5279, 165.8456
670.4564, 164.5725
672.3848, 164.5583
674.3133, 164.5307
676.2418, 163.7822
678.1702, 162.7577
680.0987, 162.3773
682.0272, 163.1936
683.9556, 163.5662
685.8841, 162.9839
687.8126, 161.8271
689.7410, 161.1000
691.6695, 161.0379
693.5980, 161.0861
695.5264, 161.0143
697.4549, 160.8766
699.3834, 160.7188
701.3118, 160.4510
703.2403, 160.3208
705.1688, 160.6557
707.0972, 160.9947
709.0257, 160.8147
710.9542, 159.7612
712.8826, 158.9413
714.8111, 158.5899
716.7396, 158.3558
718.6680, 158.1311
720.5965, 157.8406
722.5250, 157.7360
724.4534, 158.1454
726.3819, 158.7606
728.3104, 159.0058
730.2388, 158.5659
732.1673, 158.1934
734.0958, 157.8832
736.0242, 157.4011
737.9527, 157.1413
739.8812, 157.3556
741.8096, 157.4262
743.7381, 156.7973
745.6666, 155.6551
747.5950, 155.2125
749.5235, 156.5428
751.4520, 157.7637
753.3804, 157.9671
755.3089, 157.0572
757.2374, 156.3514
759.1658, 155.8274
761.0943, 155.4796
763.0228, 155.3206
764.9512, 155.3482
766.8797, 155.5279
768.8082, 156.1946
770.7366, 156.6760
772.6651, 156.6278
774.5936, 156.0069
776.5220, 155.4096
778.4505, 154.5713
780.3790, 154.1227
782.3074, 154.5245
784.2359, 155.8267
786.1644, 156.7794
788.0928, 157.3816
790.0213, 157.5552
791.9498, 156.9729
793.8782, 155.5441
795.8067, 154.7328
797.7352, 154.8484
799.6636, 155.3568
801.5921, 156.1678
803.5206, 157.3617
805.4490, 157.8956
807.3775, 157.1910
809.3060, 156.2969
811.2344, 155.6506
813.1629, 155.2780
815.0914, 155.2014
817.0198, 155.5240
818.9483, 156.0358
820.8768, 156.6814
822.8052, 157.4984
824.7337, 158.1606
826.6622, 158.5013
828.5906, 158.6600
830.5191, 158.7993
832.4476, 159.1012
834.3760, 159.3618
836.3045, 159.6346
838.2330, 159.7529
840.1614, 159.5967
842.0899, 159.1979
844.0184, 158.9321
845.9468, 158.8035
847.8753, 158.8913
849.8038, 159.3015
851.7322, 159.8495
853.6607, 160.3955
855.5892, 161.3434
857.5176, 162.0457
859.4461, 161.7620
861.3746, 160.6827
863.3030, 159.9627
865.2315, 159.9117
867.1600, 159.9084
869.0884, 159.8730
871.0169, 160.4840
872.9454, 161.2083
874.8738, 161.7710
876.8023, 162.1854
878.7308, 162.7499
880.6592, 163.6466
882.5877, 164.2491
884.5162, 164.0617
886.4446, 163.9957
888.3731, 164.6435
890.3016, 165.9958
892.2300, 166.8407
894.1585, 166.8799
896.0870, 167.2398
898.0154, 168.5582
899.9439, 170.0367
901.8724, 171.1014
903.8008, 171.7261
905.7293, 172.3958
907.6578, 173.0556
909.5862, 173.7879
911.5147, 174.7903
913.4432, 175.7590
915.3716, 176.7705
917.3001, 177.9944
919.2286, 179.7220
921.1570, 181.4206
923.0855, 182.9625
925.0140, 183.8794
926.9424, 183.7178
928.8709, 183.2098
930.7994, 182.8866
932.7278, 182.9042
934.6563, 183.0841
936.5848, 183.4059
938.5132, 183.5757
940.4417, 183.4019
942.3702, 183.3159
944.2986, 183.7333
946.2271, 184.6969
948.1556, 185.6954
950.0840, 186.7088
952.0125, 188.1953
953.9410, 189.9245
955.8694, 191.6599
957.7979, 193.4216
959.7264, 195.3496
961.6548, 197.9528
963.5833, 200.5446
965.5118, 202.7605
967.4402, 204.9732
969.3687, 207.7348
971.2972, 210.7413
973.2256, 213.3662
975.1541, 215.5881
977.0826, 218.0205
979.0110, 220.7443
980.9395, 223.8990
982.8680, 227.8759
984.7964, 232.0950
986.7249, 235.6349
988.6534, 238.5909
990.5818, 241.8879
992.5103, 245.4283
994.4388, 247.5688
996.3672, 247.9225
998.2957, 246.2980
1000.224, 244.0499
1002.153, 241.5671
1004.081, 238.8691
1006.010, 235.4123
1007.938, 231.2575
1009.867, 226.9550
1011.795, 222.6104
1013.723, 217.6660
1015.652, 213.8590
1017.580, 211.5891
1019.509, 209.2485
1021.437, 205.3542
1023.366, 201.1847
1025.294, 198.2271
1027.223, 196.7810
1029.151, 195.6404
1031.080, 194.2026
1033.008, 192.4344
1034.937, 190.8972
1036.865, 190.5631
1038.794, 190.8773
1040.722, 191.2839
1042.651, 190.8652
1044.579, 189.3842
1046.507, 188.6488
1048.436, 188.4510
1050.364, 188.0322
1052.293, 187.3382
1054.221, 186.8708
1056.150, 186.8944
1058.078, 186.6464
1060.007, 185.9511
1061.935, 185.4332
1063.864, 185.3387
1065.792, 185.1557
1067.721, 184.6841
1069.649, 184.5611
1071.578, 184.3158
1073.506, 183.6363
1075.434, 182.5871
1077.363, 181.4827
1079.291, 180.3949
1081.220, 179.4714
1083.148, 178.8625
1085.077, 178.6532
1087.005, 178.8082
1088.934, 178.6606
1090.862, 177.7408
1092.791, 177.1123
1094.719, 176.6953
1096.648, 176.1188
1098.576, 175.9848
1100.505, 175.2186
1102.433, 175.7037
1104.361, 175.7802
1106.290, 175.4220
1108.218, 175.1358
1110.147, 175.3672
1112.075, 176.0701
1114.004, 176.4243
1115.932, 175.8385
1117.861, 174.7293
1119.789, 173.8553
1121.718, 174.0123
1123.646, 174.1795
1125.575, 173.6759
1127.503, 173.2504
1129.432, 173.5081
1131.360, 174.4075
1133.288, 174.8663
1135.217, 174.2819
1137.145, 173.2939
1139.074, 172.8584
1141.002, 172.9076
1142.931, 172.7632
1144.859, 171.8724
1146.788, 171.5404
1148.716, 172.2665
1150.645, 173.2474
1152.573, 173.8294
1154.502, 173.8914
1156.430, 173.3946
1158.359, 172.4819
1160.287, 172.3009
1162.215, 172.8152
1164.144, 173.4436
1166.072, 173.5751
1168.001, 173.5488
1169.929, 173.5701
1171.858, 173.2189
1173.786, 172.7762
1175.715, 172.7043
1177.643, 173.1305
1179.572, 173.5800
1181.500, 173.7589
1183.429, 173.8381
1185.357, 173.9042
1187.286, 173.9845
1189.214, 174.2481
1191.142, 175.1309
1193.071, 175.6651
1194.999, 175.3440
1196.928, 174.4180
1198.856, 173.8256
1200.785, 173.9034
1202.713, 174.0979
1204.642, 173.3291
1206.570, 172.3017
1208.499, 172.4542
1210.427, 173.6371
1212.356, 174.5377
1214.284, 174.7920
1216.213, 175.1134
1218.141, 175.3579
1220.069, 175.4414
1221.998, 175.5907
1223.926, 175.9367
1225.855, 176.2353
1227.783, 176.4065
1229.712, 176.4368
1231.640, 176.4825
1233.569, 176.4809
1235.497, 176.1406
1237.426, 175.2611
1239.354, 174.5779
1241.283, 174.6110
1243.211, 175.1505
1245.140, 175.2796
1247.068, 174.8941
1248.996, 174.8382
1250.925, 175.7189
1252.853, 176.3274
1254.782, 176.4888
1256.710, 176.5844
1258.639, 176.5828
1260.567, 175.9564
1262.496, 175.7194
1264.424, 176.4613
1266.353, 177.2085
1268.281, 177.6357
1270.210, 178.1123
1272.138, 178.5861
1274.067, 178.7350
1275.995, 178.8941
1277.923, 179.7214
1279.852, 180.7425
1281.780, 181.1852
1283.709, 180.8951
1285.637, 180.2632
1287.566, 178.8563
1289.494, 178.0738
1291.423, 179.0033
1293.351, 180.9681
1295.280, 181.6993
1297.208, 180.1272
1299.137, 179.1381
1301.065, 179.4809
1302.994, 180.3623
1304.922, 181.1967
1306.850, 181.9482
1308.779, 182.4131
1310.707, 182.6515
1312.636, 182.4790
1314.564, 181.4147
1316.493, 180.3276
1318.421, 180.1992
1320.350, 180.8967
1322.278, 181.6080
1324.207, 182.4331
1326.135, 183.1330
1328.064, 183.3414
1329.992, 183.1403
1331.921, 182.7691
1333.849, 182.0773
1335.777, 182.1031
1337.706, 183.9500
1339.634, 185.5470
1341.563, 185.7672
1343.491, 185.0321
1345.420, 184.6773
1347.348, 184.9842
1349.277, 185.3104
1351.205, 185.7757
1353.134, 186.0831
1355.062, 185.9650
1356.991, 185.5369
1358.919, 185.4172
1360.848, 185.7060
1362.776, 186.0547
1364.704, 186.5255
1366.633, 186.9338
1368.561, 187.1886
1370.490, 187.3246
1372.418, 187.0485
1374.347, 185.8438
1376.275, 185.2290
1378.204, 186.2933
1380.132, 187.8451
1382.061, 188.8856
1383.989, 189.4086
1385.918, 189.4052
1387.846, 188.2707
1389.775, 187.5917
1391.703, 188.3217
1393.631, 189.4196
1395.560, 189.4377
1397.488, 187.8564
1399.417, 187.4154
1401.345, 189.2081
1403.274, 190.6175
1405.202, 190.5493
1407.131, 189.8125
1409.059, 189.6136
1410.988, 190.0754
1412.916, 190.3622
1414.845, 190.3790
1416.773, 190.3562
1418.702, 190.4116
1420.630, 190.4807
1422.558, 190.3944
1424.487, 190.1541
1426.415, 190.2120
1428.344, 190.5791
1430.272, 191.2157
1432.201, 192.5744
1434.129, 194.0212
1436.058, 194.4080
1437.986, 193.6165
1439.915, 193.1500
1441.843, 193.6594
1443.772, 193.8325
1445.700, 192.7762
1447.629, 191.4098
1449.557, 191.1187
1451.485, 192.2101
1453.414, 193.2041
1455.342, 194.0826
1457.271, 194.7256
1459.199, 195.0916
1461.128, 195.2896
1463.056, 195.3151
1464.985, 195.0987
1466.913, 194.9049
1468.842, 194.6005
1470.770, 194.4931
1472.699, 194.7953
1474.627, 195.2636
1476.556, 195.8369
1478.484, 196.6934
1480.412, 196.9484
1482.341, 195.8302
1484.269, 195.2194
1486.198, 196.1635
1488.126, 197.5677
1490.055, 198.1829
1491.983, 198.1447
1493.912, 198.3354
1495.840, 199.0328
1497.769, 199.3472
1499.697, 198.5276
1501.626, 197.6821
1503.554, 197.8245
1505.483, 198.7339
1507.411, 199.4639
1509.339, 200.0386
1511.268, 200.1761
1513.196, 198.9919
1515.125, 198.1415
1517.053, 198.9053
1518.982, 200.8380
1520.910, 202.0914
1522.839, 202.4682
1524.767, 202.5875
1526.696, 202.5185
1528.624, 202.2096
1530.553, 201.3819
1532.481, 200.4063
1534.410, 200.1366
1536.338, 200.9530
1538.266, 201.2509
1540.195, 200.2267
1542.123, 199.8033
1544.052, 201.1153
1545.980, 203.0318
1547.909, 203.9767
1549.837, 203.5968
1551.766, 203.7350
1553.694, 205.2706
1555.623, 206.4412
1557.551, 206.7298
1559.480, 206.4829
1561.408, 205.9593
1563.337, 205.2355
1565.265, 204.7188
1567.193, 204.2994
1569.122, 204.3228
1571.050, 205.3992
1572.979, 206.2684
1574.907, 205.8381
1576.836, 204.7885
1578.764, 204.7738
1580.693, 205.8680
1582.621, 206.5981
1584.550, 207.0029
1586.478, 206.9670
1588.407, 205.7229
1590.335, 204.3926
1592.264, 204.7924
1594.192, 206.6657
1596.120, 207.4457
1598.049, 206.5025
1599.977, 205.6959
1601.906, 205.4252
1603.834, 205.6475
1605.763, 206.7311
1607.691, 208.2197
1609.620, 208.8473
1611.548, 208.3885
1613.477, 208.6584
1615.405, 210.4878
1617.334, 212.2217
1619.262, 212.9684
1621.191, 213.1949
1623.119, 213.3945
1625.047, 213.5889
1626.976, 213.8662
1628.904, 214.4610
1630.833, 214.3250
1632.761, 212.3865
1634.690, 210.6004
1636.618, 210.3599
1638.547, 211.1353
1640.475, 211.6618
1642.404, 211.8557
1644.332, 212.4025
1646.261, 213.7646
1648.189, 214.7775
1650.118, 214.6364
1652.046, 214.2037
1653.974, 214.2893
1655.903, 214.8227
1657.831, 215.3338
1659.760, 215.9186
1661.688, 216.0390
1663.617, 214.9814
1665.545, 214.1563
1667.474, 214.2649
1669.402, 214.9494
1671.331, 215.7572
1673.259, 216.6912
1675.188, 217.5520
1677.116, 218.6083
1679.045, 218.9991
1680.973, 217.6922
1682.901, 216.5070
1684.830, 216.6633
1686.758, 217.7192
1688.687, 218.5916
1690.615, 219.2768
1692.544, 219.6123
1694.472, 219.2515
1696.401, 219.0997
1698.329, 219.5457
1700.258, 220.2206
1702.186, 221.0993
1704.115, 222.0230
1706.043, 222.1254
1707.972, 221.2192
1709.900, 220.5330
1711.828, 220.1263
1713.757, 220.1201
1715.685, 220.8600
1717.614, 221.7168
1719.542, 222.0180
1721.471, 221.8754
1723.399, 222.0992
1725.328, 222.8750
1727.256, 223.2647
1729.185, 222.7504
1731.113, 222.4629
1733.042, 223.0903
1734.970, 223.9810
1736.899, 224.5546
1738.827, 224.8065
1740.755, 224.7011
1742.684, 224.1460
1744.612, 223.5122
1746.541, 222.3994
1748.469, 221.9334
1750.398, 223.3163
1752.326, 225.0227
1754.255, 225.3534
1756.183, 224.6397
1758.112, 224.5415
1760.040, 225.2052
1761.969, 226.0376
1763.897, 227.2290
1765.826, 228.0552
1767.754, 227.8513
1769.682, 227.3975
1771.611, 227.3603
1773.539, 227.6576
1775.468, 228.0453
1777.396, 228.5156
1779.325, 229.0206
1781.253, 229.7072
1783.182, 230.1312
1785.110, 229.8709
1787.039, 229.5292
1788.967, 229.8950
1790.896, 230.5221
1792.824, 230.0201
1794.753, 228.2625
1796.681, 227.3500
1798.609, 227.9560
1800.538, 228.4431
1802.466, 227.8497
1804.395, 227.3241
1806.323, 227.9724
1808.252, 227.8021
1810.180, 228.0313
1812.109, 228.8016
1814.037, 228.9360
1815.966, 230.1380
1817.894, 231.4733
1819.823, 232.9747
1821.751, 234.2103
1823.680, 235.0367
1825.608, 235.3765
1827.536, 234.9291
1829.465, 233.7850
1831.393, 232.9725
1833.322, 232.4682
1835.250, 232.4380
1837.179, 233.3824
1839.107, 234.1903
1841.036, 234.4283
1842.964, 234.4232
1844.893, 234.4502
1846.821, 234.4546
1848.750, 234.2327
1850.678, 233.6410
1852.607, 233.4663
1854.535, 233.7367
1856.464, 234.4195
1858.392, 236.4915
1860.320, 237.8741
1862.249, 236.6608
1864.177, 234.5431
1866.106, 234.0531
1868.034, 235.0835
1869.963, 235.6262
1871.891, 235.3482
1873.820, 235.5140
1875.748, 236.6728
1877.677, 237.6818
1879.605, 238.1333
1881.534, 238.4544
1883.462, 239.0384
1885.391, 239.6747
1887.319, 239.7836
1889.247, 239.3567
1891.176, 239.2588
1893.104, 239.5893
1895.033, 240.0217
1896.961, 240.4073
1898.890, 241.0634
1900.818, 242.7591
1902.747, 244.2777
1904.675, 244.2193
1906.604, 243.2350
1908.532, 242.8479
1910.461, 243.0765
1912.389, 243.7417
1914.318, 245.3007
1916.246, 245.8407
1918.174, 243.4929
1920.103, 241.7301
1922.031, 242.6651
1923.960, 244.6027
1925.888, 245.8059
1927.817, 246.4616
1929.745, 247.3598
1931.674, 247.8203
1933.602, 247.8716
1935.531, 248.3146
1937.459, 247.5205
1939.388, 247.2608
1941.316, 246.9090
1943.245, 245.6103
1945.173, 244.5688
1947.101, 245.4209
1949.030, 247.5918
1950.958, 248.9428
1952.887, 249.3714
1954.815, 249.5032
1956.744, 249.2210
1958.672, 248.8918
1960.601, 248.2686
1962.529, 248.0550
1964.458, 249.2245
1966.386, 250.3331
1968.315, 249.8886
1970.243, 248.6082
1972.172, 247.6514
1974.100, 247.1484
1976.028, 248.7905
1977.957, 253.4339
1979.885, 256.7014
1981.814, 256.7830
1983.742, 256.9337
1985.671, 259.9522
1987.599, 261.8274
1989.528, 258.0119
1991.456, 251.9909
1993.385, 249.7708
1995.313, 251.0067
1997.242, 251.5196
1999.170, 250.7167
2001.099, 250.7265
2003.027, 252.6490
2004.955, 253.6306
2006.884, 251.2793
2008.812, 250.2969
2010.741, 255.4012
2012.669, 260.9283
2014.598, 259.9892
2016.526, 254.8420
2018.455, 252.4815
2020.383, 252.8526
2022.312, 253.0579
2024.240, 252.8133
2026.169, 252.8576
2028.097, 253.5804
2030.026, 253.9911
2031.954, 253.2610
2033.882, 252.5977
2035.811, 252.9804
2037.739, 253.7722
2039.668, 254.3057
2041.596, 254.5318
2043.525, 254.0204
2045.453, 254.2196
2047.382, 254.4410
2049.310, 253.7812
2051.239, 254.7925
2053.167, 254.5035
2055.096, 253.9603
2057.024, 253.0307
2058.953, 252.4780
2060.881, 253.3070
2062.810, 254.5030
2064.738, 254.2915
2066.667, 253.1379
2068.595, 253.4084
2070.523, 255.1402
2072.452, 256.4077
2074.380, 257.1015
2076.309, 257.0311
2078.237, 255.5732
2080.166, 254.4958
2082.094, 254.7772
2084.023, 255.3253
2085.951, 255.4648
2087.880, 255.4402
2089.808, 255.4235
2091.737, 255.5051
2093.665, 256.1768
2095.594, 257.5689
2097.522, 258.0860
2099.450, 257.1826
2101.379, 256.8014
2103.307, 257.8613
2105.236, 258.0194
2107.164, 255.2874
2109.093, 253.4502
2111.021, 255.3934
2112.950, 257.8772
2114.878, 257.9604
2116.807, 256.7863
2118.735, 256.0468
2120.664, 255.8114
2122.592, 256.4929
2124.521, 258.2544
2126.449, 259.5365
2128.377, 260.1254
2130.306, 260.4450
2132.234, 260.3194
2134.163, 260.1965
2136.091, 260.5183
2138.020, 260.4564
2139.948, 258.7991
2141.877, 257.1250
2143.805, 257.4381
2145.734, 259.0108
2147.662, 260.2236
2149.591, 261.0687
2151.519, 261.4111
2153.448, 261.2161
2155.376, 260.8352
2157.304, 260.2066
2159.233, 259.7039
2161.161, 259.1298
2163.090, 259.1814
2165.018, 261.1128
2166.947, 262.5493
2168.875, 261.2622
2170.804, 259.5524
2172.732, 260.2008
2174.661, 262.0305
2176.589, 262.4822
2178.518, 261.6889
2180.446, 261.1534
2182.375, 260.8497
2184.303, 261.2601
2186.231, 262.5519
2188.160, 264.0693
2190.088, 266.3049
2192.017, 267.2684
2193.945, 265.1104
2195.874, 263.0812
2197.802, 262.6217
2199.731, 262.8680
2201.659, 263.3912
2203.588, 264.0164
2205.516, 264.8921
2207.445, 265.6445
2209.373, 264.4734
2211.302, 265.5536
2213.230, 265.7771
2215.158, 265.1440
2217.087, 266.3547
2219.015, 263.7636
2220.944, 262.4853
2222.872, 264.3460
2224.801, 265.8258
2226.729, 264.9857
2228.658, 264.3972
2230.586, 265.7534
2232.515, 267.3861
2234.443, 267.9653
2236.372, 268.0736
2238.300, 268.6187
2240.229, 269.3151
2242.157, 269.1138
2244.085, 268.1494
2246.014, 267.7974
2247.942, 268.0565
2249.871, 268.5894
2251.799, 269.5102
2253.728, 269.5567
2255.656, 267.6747
2257.585, 266.8397
2259.513, 269.1740
2261.442, 270.7895
2263.370, 269.5991
2265.299, 268.1978
2267.227, 268.1252
2269.156, 268.5885
2271.084, 268.9793
2273.012, 269.2992
2274.941, 269.5564
2276.869, 269.7315
2278.798, 269.7610
2280.726, 269.6571
2282.655, 269.3973
2284.583, 268.8867
2286.512, 269.4694
2288.440, 272.2710
2290.369, 273.5638
2292.297, 272.1210
2294.226, 270.8151
2296.154, 269.5146
2298.083, 269.1563
2300.011, 270.8213
2301.939, 272.3380
2303.868, 272.5427
2305.796, 272.2490
2307.725, 272.0410
2309.653, 271.7406
2311.582, 270.8277
2313.510, 269.8526
2315.439, 270.2431
2317.367, 269.9023
2319.296, 270.1088
2321.224, 270.9455
2323.153, 271.2867
2325.081, 273.0921
2327.010, 274.7492
2328.938, 276.2560
2330.866, 276.7830
2332.795, 275.9180
2334.723, 274.8470
2336.652, 273.4995
2338.580, 272.7003
2340.509, 273.2163
2342.437, 273.7516
2344.366, 273.5038
2346.294, 273.3104
2348.223, 274.1209
2350.151, 274.9244
2352.080, 274.2083
2354.008, 273.1226
2355.937, 273.9290
2357.865, 275.5325
2359.793, 274.8281
2361.722, 275.6937
2363.650, 275.8942
2365.579, 276.2131
2367.507, 276.6435
2369.436, 277.2480
2371.364, 278.7243
2373.293, 276.8913
2375.221, 279.3370
2377.150, 277.8642
2379.078, 276.2488
2381.007, 274.8982
2382.935, 274.4824
2384.864, 276.2065
2386.792, 277.5275
2388.720, 277.4753
2390.649, 276.8121
2392.577, 274.9892
2394.506, 273.8560
2396.434, 275.9845
2398.363, 278.4474
2400.291, 277.3763
2402.220, 275.1624
2404.148, 275.6107
2406.077, 277.4192
2408.005, 277.7907
2409.934, 277.0811
2411.862, 276.6854
2413.791, 276.6167
2415.719, 277.4568
2417.647, 279.3610
2419.576, 280.7660
2421.504, 281.6819
2423.433, 281.8022
2425.361, 280.9243
2427.290, 280.5140
2429.218, 280.9881
2431.147, 281.5052
2433.075, 281.1118
2435.004, 282.0174
2436.932, 286.9507
2438.861, 289.7299
2440.789, 286.8839
2442.718, 283.7523
2444.646, 281.7983
2446.574, 281.0751
2448.503, 282.5934
2450.431, 284.2338
2452.360, 284.4398
2454.288, 283.8471
2456.217, 282.6967
2458.145, 281.5046
2460.074, 280.9828
2462.002, 280.9548
2463.931, 281.2208
2465.859, 281.6566
2467.788, 281.8429
2469.716, 281.9193
2471.645, 282.1536
2473.573, 282.3919
2475.501, 282.2673
2477.430, 282.3209
2479.358, 282.1169
2481.287, 281.9021
2483.215, 281.9184
2485.144, 281.5550
2487.072, 281.3906
2489.001, 281.5189
2490.929, 281.6325
2492.858, 281.4274
2494.786, 281.8625
2496.715, 284.0954
2498.643, 285.2099
2500.572, 284.3099
2502.500, 283.1428
2504.428, 281.3772
2506.357, 280.8694
2508.285, 283.1628
2510.214, 285.3730
2512.142, 286.6797
2514.071, 286.8548
2515.999, 285.0163
2517.928, 282.9701
2519.856, 281.2272
2521.785, 280.4645
2523.713, 281.9507
2525.642, 283.8286
2527.570, 284.5524
2529.499, 284.7990
2531.427, 285.3757
2533.355, 285.9415
2535.284, 286.1141
2537.212, 285.8954
2539.141, 284.7151
2541.069, 283.3864
2542.998, 284.2729
2544.926, 286.2777
2546.855, 286.5118
2548.783, 285.4310
2550.712, 284.6566
2552.640, 284.2224
2554.569, 284.5949
2556.497, 284.2886
2558.426, 285.8155
2560.354, 285.0012
2562.282, 285.2681
2564.211, 286.6407
2566.139, 288.1231
2568.068, 289.7278
2569.996, 290.2246
2571.925, 289.1306
2573.853, 288.4521
2575.782, 288.1821
2577.710, 288.6357
2579.639, 290.1941
2581.567, 289.9959
2583.496, 287.0070
2585.424, 285.6290
2587.353, 287.9582
2589.281, 288.9437
2591.209, 286.6994
2593.138, 286.1586
2595.066, 288.5821
2596.995, 290.1672
2598.923, 289.8266
2600.852, 289.3435
2602.780, 289.0500
2604.709, 289.0402
2606.637, 289.2080
2608.566, 290.0265
2610.494, 293.2413
2612.423, 294.1758
2614.351, 289.5310
2616.280, 286.7121
2618.208, 290.6279
2620.136, 293.7936
2622.065, 292.6281
2623.993, 290.7835
2625.922, 288.8732
2627.850, 287.9732
2629.779, 289.1104
2631.707, 290.3963
2633.636, 291.3092
2635.564, 291.5395
2637.493, 290.0197
2639.421, 289.0508
2641.350, 291.2590
2643.278, 292.8985
2645.207, 290.5815
2647.135, 288.1484
2649.063, 288.0555
2650.992, 288.5128
2652.920, 288.2872
2654.849, 288.0619
2656.777, 288.1959
2658.706, 288.7868
2660.634, 290.5806
2662.563, 292.1290
2664.491, 292.1377
2666.420, 291.6513
2668.348, 291.2137
2670.277, 290.9872
2672.205, 290.9838
2674.134, 291.3558
2676.062, 293.0066
2677.990, 294.2613
2679.919, 292.6239
2681.847, 290.9483
2683.776, 292.5116
2685.704, 294.6259
2687.633, 294.3046
2689.561, 295.3628
2691.490, 294.2900
2693.418, 295.2714
2695.347, 294.4739
2697.275, 293.2617
2699.204, 292.4412
2701.132, 292.4078
2703.061, 294.5963
2704.989, 296.7552
2706.917, 296.1044
2708.846, 294.5692
2710.774, 293.9498
2712.703, 293.5916
2714.631, 292.7700
2716.560, 291.9666
2718.488, 291.5983
2720.417, 291.5883
2722.345, 292.3896
2724.274, 292.9707
2726.202, 291.7410
2728.131, 290.5971
2730.059, 292.0575
2731.988, 293.4550
2733.916, 291.2160
2735.844, 288.8996
2737.773, 289.7749
2739.701, 292.0468
2741.630, 295.7858
2743.558, 298.3359
2745.487, 296.5575
2747.415, 293.9446
2749.344, 293.2086
2751.272, 293.0121
2753.201, 292.0832
2755.129, 291.6726
2757.058, 292.7687
2758.986, 294.4230
2760.915, 297.0350
2762.843, 298.5529
2764.771, 296.3347
2766.700, 294.3747
2768.628, 295.4714
2770.557, 296.5759
2772.485, 295.8673
2774.414, 294.9161
2776.342, 294.2077
2778.271, 293.9380
2780.199, 294.5539
2782.128, 295.1074
2784.056, 295.2328
2785.985, 295.3564
2787.913, 295.9763
2789.842, 296.2137
2791.770, 295.0804
2793.698, 294.7004
2795.627, 296.0128
2797.555, 297.1016
2799.484, 297.3174
2801.412, 297.3322
2803.341, 296.6084
2805.269, 296.9778
2807.198, 299.9186
2809.126, 301.4863
2811.055, 300.9602
2812.983, 300.0922
2814.912, 299.1067
2816.840, 298.4263
2818.769, 298.1750
2820.697, 298.2325
2822.625, 297.8783
2824.554, 298.6193
2826.482, 297.6635
2828.411, 298.0739
2830.339, 298.0209
2832.268, 297.7267
2834.196, 298.8229
2836.125, 298.0186
2838.053, 298.8533
2839.982, 300.1280
2841.910, 301.7476
2843.839, 303.3009
2845.767, 304.6999
2847.696, 303.5370
2849.624, 303.4542
2851.552, 299.7086
2853.481, 300.8284
2855.409, 300.1463
2857.338, 298.6982
2859.266, 300.6231
2861.195, 304.0843
2863.123, 304.1044
2865.052, 302.2982
2866.980, 301.1419
2868.909, 300.7198
2870.837, 301.5882
2872.766, 302.8708
2874.694, 303.6870
2876.623, 303.9679
2878.551, 303.0560
2880.479, 302.2861
2882.408, 303.0876
2884.336, 304.0130
2886.265, 304.2931
2888.193, 303.8601
2890.122, 302.0858
2892.050, 300.7546
2893.979, 301.2099
2895.907, 301.6274
2897.836, 300.8091
2899.764, 300.8351
2901.693, 302.5471
2903.621, 304.0969
2905.550, 305.1079
2907.478, 305.5913
2909.406, 306.1099
2911.335, 306.1010
2913.263, 305.7389
2915.192, 305.5604
2917.120, 304.2097
2919.049, 303.6885
2920.977, 304.3394
2922.906, 304.6328
2924.834, 304.5476
2926.763, 304.7578
2928.691, 305.2054
2930.620, 305.7324
2932.548, 306.2081
2934.477, 306.0573
2936.405, 305.5565
2938.333, 305.8899
2940.262, 306.1498
2942.190, 303.6550
2944.119, 305.2072
2946.047, 303.1191
2947.976, 306.1129
2949.904, 306.5612
2951.833, 306.0568
2953.761, 305.2394
2955.690, 304.7040
2957.618, 305.0808
2959.547, 305.3967
2961.475, 305.0132
2963.404, 304.8279
2965.332, 305.1137
2967.260, 305.6213
2969.189, 306.8542
2971.117, 307.1221
2973.046, 305.8427
2974.974, 305.6848
2976.903, 307.1096
2978.831, 306.9298
2980.760, 307.5976
2982.688, 308.3258
2984.617, 308.1245
2986.545, 309.2287
2988.474, 308.5046
2990.402, 308.1116
2992.331, 307.9969
2994.259, 308.1554
2996.188, 308.2730
2998.116, 307.3314
3000.044, 306.4118
3001.973, 307.0019
3003.901, 308.0035
3005.830, 308.6046
3007.758, 308.8947
3009.687, 308.7973
3011.615, 308.6479
3013.544, 308.8574
3015.472, 308.5823
3017.401, 308.7257
3019.329, 309.4398
3021.258, 308.8562
3023.186, 310.7774
3025.115, 310.9542
3027.043, 310.8651
3028.971, 310.5258
3030.900, 310.7087
3032.828, 311.3958
3034.757, 312.3552
3036.685, 313.3019
3038.614, 312.3430
3040.542, 313.6186
3042.471, 311.9551
3044.399, 314.0235
3046.328, 313.1190
3048.256, 311.4572
3050.185, 310.7886
3052.113, 311.1811
3054.042, 313.8007
3055.970, 315.6428
3057.898, 314.3477
3059.827, 313.7288
3061.755, 316.2557
3063.684, 316.9509
3065.612, 314.5287
3067.541, 314.0132
3069.469, 316.6248
3071.398, 317.4691
3073.326, 316.1655
3075.255, 315.7806
3077.183, 316.2136
3079.112, 316.9909
3081.040, 318.0239
3082.969, 319.1959
3084.897, 320.3954
3086.825, 321.7747
3088.754, 322.5959
3090.682, 321.0403
3092.611, 320.1981
3094.539, 323.3277
3096.468, 325.9941
3098.396, 326.9290
3100.325, 326.3553
3102.253, 323.2059
3104.182, 321.2878
3106.110, 321.0079
3108.039, 321.8780
3109.967, 323.8436
3111.896, 324.8442
3113.824, 324.9030
3115.752, 324.9980
3117.681, 325.0220
3119.609, 324.3552
3121.538, 323.6325
3123.466, 323.7561
3125.395, 324.3528
3127.323, 325.1335
3129.252, 326.1044
3131.180, 327.3914
3133.109, 328.6087
3135.037, 329.6288
3136.966, 330.5490
3138.894, 331.2625
3140.823, 331.5469
3142.751, 332.1809
3144.679, 332.4599
3146.608, 332.4109
3148.536, 332.9283
3150.465, 332.5114
3152.393, 332.7682
3154.322, 333.3787
3156.250, 334.0075
3158.179, 334.3602
3160.107, 333.5523
3162.036, 333.2582
3163.964, 335.1320
3165.893, 336.7304
3167.821, 336.6617
3169.750, 337.8256
3171.678, 338.3649
3173.606, 338.4073
3175.535, 339.6866
3177.463, 339.0720
3179.392, 340.2541
3181.320, 341.7583
3183.249, 343.3268
3185.177, 344.3258
3187.106, 345.0911
3189.034, 346.1118
3190.963, 347.0988
3192.891, 347.6731
3194.820, 348.3600
3196.748, 349.2241
3198.677, 350.6326
3200.605, 352.7992
3202.533, 354.7308
3204.462, 356.2038
3206.390, 357.8211
3208.319, 359.5156
3210.247, 360.0167
3212.176, 361.5065
3214.104, 361.4641
3216.033, 363.3682
3217.961, 363.6970
3219.890, 364.0644
3221.818, 365.6586
3223.747, 367.6849
3225.675, 370.0023
3227.604, 372.3421
3229.532, 374.7729
3231.460, 376.6064
3233.389, 377.6776
3235.317, 378.1508
3237.246, 378.1711
3239.174, 379.0770
3241.103, 380.4196
3243.031, 381.0635
3244.960, 381.8340
3246.888, 383.9520
3248.817, 386.3423
3250.745, 387.9814
3252.674, 390.6925
3254.602, 393.3392
3256.531, 396.0776
3258.459, 399.6394
3260.387, 401.7244
3262.316, 405.7864
3264.244, 407.6130
3266.173, 408.2281
3268.101, 410.5080
3270.030, 413.8447
3271.958, 418.3615
3273.887, 422.3296
3275.815, 424.1308
3277.744, 426.2756
3279.672, 429.2782
3281.601, 433.9821
3283.529, 440.6534
3285.458, 447.1595
3287.386, 453.1699
3289.314, 456.1434
3291.243, 457.8593
3293.171, 465.1245
3295.100, 467.5827
3297.028, 474.9647
3298.957, 476.9617
3300.885, 484.4562
3302.814, 491.5778
3304.742, 496.7672
3306.671, 501.7509
3308.599, 506.7963
3310.528, 512.3761
3312.456, 518.2224
3314.385, 522.1484
3316.313, 524.8232
3318.241, 527.1965
3320.170, 529.5869
3322.098, 532.2669
3324.027, 535.1133
3325.955, 537.4308
3327.884, 541.7582
3329.812, 549.2684
3331.741, 553.6246
3333.669, 553.9893
3335.598, 555.6185
3337.526, 558.8979
3339.455, 567.5598
3341.383, 576.4484
3343.312, 576.6508
3345.240, 577.7079
3347.168, 586.7196
3349.097, 595.4025
3351.025, 600.7347
3352.954, 606.1483
3354.882, 611.8600
3356.811, 619.2627
3358.739, 628.4342
3360.668, 639.7289
3362.596, 651.7940
3364.525, 662.2903
3366.453, 672.5592
3368.382, 683.2828
3370.310, 694.6566
3372.239, 706.6211
3374.167, 720.0978
3376.095, 735.4272
3378.024, 747.5032
3379.952, 757.7401
3381.881, 776.3608
3383.809, 800.3344
3385.738, 827.1609
3387.666, 853.5154
3389.595, 875.0233
3391.523, 899.1016
3393.452, 928.9080
3395.380, 958.9528
3397.309, 988.8257
3399.237, 1014.377
3401.166, 1045.046
3403.094, 1069.035
3405.022, 1103.356
3406.951, 1136.552
3408.879, 1166.228
3410.808, 1195.360
3412.736, 1211.419
3414.665, 1212.714
3416.593, 1197.436
3418.522, 1165.204
3420.450, 1125.160
3422.379, 1080.160
3424.307, 1037.817
3426.236, 995.8130
3428.164, 950.8258
3430.093, 907.0784
3432.021, 865.2277
3433.949, 829.1056
3435.878, 801.0135
3437.806, 770.5608
3439.735, 738.1451
3441.663, 709.6034
3443.592, 684.8430
3445.520, 665.7416
3447.449, 647.6783
3449.377, 627.1051
3451.306, 607.9088
3453.234, 592.6919
3455.163, 576.3982
3457.091, 559.0063
3459.020, 541.1151
3460.948, 524.0884
3462.876, 511.6850
3464.805, 501.5645
3466.733, 491.5583
3468.662, 482.5340
3470.590, 475.7664
3472.519, 467.8688
3474.447, 458.5081
3476.376, 448.9011
3478.304, 439.7241
3480.233, 434.0792
3482.161, 429.9077
3484.090, 424.7186
3486.018, 420.1828
3487.947, 417.6017
3489.875, 414.7672
3491.803, 411.3460
3493.732, 407.1221
3495.660, 402.4180
3497.589, 399.4186
3499.517, 397.4757
3501.446, 395.8404
3503.374, 394.7336
3505.303, 394.1422
3507.231, 394.5087
3509.160, 392.8690
3511.088, 390.9872
3513.017, 390.1174
3514.945, 386.6189
3516.874, 384.4971
3518.802, 384.0872
3520.730, 383.0936
3522.659, 379.4803
3524.587, 377.3776
3526.516, 377.7691
3528.444, 378.7846
3530.373, 380.2123
3532.301, 381.3435
3534.230, 382.3035
3536.158, 382.4343
3538.087, 383.9639
3540.015, 387.5507
3541.944, 393.1842
3543.872, 400.3491
3545.801, 417.7035
3547.729, 447.3626
3549.657, 502.3852
3551.586, 565.6393
3553.514, 631.6093
3555.443, 672.9244
3557.371, 662.6309
3559.300, 660.9298
3561.228, 675.1011
3563.157, 752.0597
3565.085, 878.6053
3567.014, 1059.307
3568.942, 1207.173
3570.871, 1263.874
3572.799, 1219.254
3574.728, 1060.601
3576.656, 901.8807
3578.584, 758.5675
3580.513, 676.8312
3582.441, 634.3610
3584.370, 608.2076
3586.298, 571.5289
3588.227, 497.5388
3590.155, 433.2033
3592.084, 386.7282
3594.012, 361.4714
3595.941, 353.3057
3597.869, 347.1745
3599.798, 343.0114
3601.726, 338.6425
3603.655, 340.7894
3605.583, 335.4052
3607.511, 333.9568
3609.440, 337.2463
3611.368, 334.0268
3613.297, 328.4359
3615.225, 327.9012
3617.154, 328.7611
3619.082, 329.2650
3621.011, 328.5679
3622.939, 329.3662
3624.868, 326.2278
3626.796, 328.8389
3628.725, 326.8973
3630.653, 324.1504
3632.582, 325.0100
3634.510, 325.5706
3636.438, 324.6155
3638.367, 322.9765
3640.295, 320.9865
3642.224, 321.9265
3644.152, 323.6940
3646.081, 323.3557
3648.009, 322.3635
3649.938, 321.0828
3651.866, 320.4037
3653.795, 320.4213
3655.723, 319.9254
3657.652, 319.2436
3659.580, 319.3921
3661.509, 319.1599
3663.437, 317.0464
3665.365, 316.9549
3667.294, 319.9343
3669.222, 326.1754
3671.151, 332.0348
3673.079, 324.4280
3675.008, 315.8117
3676.936, 316.6786
3678.865, 319.3589
3680.793, 322.5146
3682.722, 323.5496
3684.650, 322.6423
3686.579, 319.8503
3688.507, 317.5855
3690.436, 319.2398
3692.364, 320.4590
3694.292, 319.6216
3696.221, 318.2899
3698.149, 316.7826
3700.078, 316.4791
3702.006, 316.8226
3703.935, 317.2935
3705.863, 317.8604
3707.792, 318.7474
3709.720, 318.6663
3711.649, 317.9335
3713.577, 319.1081
3715.506, 320.5918
3717.434, 320.7638
3719.363, 319.3251
3721.291, 319.8792
3723.219, 319.2126
3725.148, 318.4393
3727.076, 318.1879
3729.005, 316.2450
3730.933, 314.9819
3732.862, 314.7083
3734.790, 315.7145
3736.719, 317.6970
3738.647, 319.9897
3740.576, 316.9968
3742.504, 313.3887
3744.433, 315.9133
3746.361, 317.6181
3748.290, 315.7754
3750.218, 315.8575
3752.146, 317.5587
3754.075, 317.3357
3756.003, 316.7414
3757.932, 317.1613
3759.860, 318.4658
3761.789, 321.1217
3763.717, 321.2572
3765.646, 319.2256
3767.574, 316.1439
3769.503, 313.7383
3771.431, 313.9617
3773.360, 314.9348
3775.288, 316.5256
3777.217, 316.4515
3779.145, 315.8079
3781.073, 318.9042
3783.002, 321.2904
3784.930, 319.0494
3786.859, 317.4308
3788.787, 317.3354
3790.716, 316.6433
3792.644, 316.0623
3794.573, 316.0238
3796.501, 315.8695
3798.430, 316.2426
3800.358, 315.5281
3802.287, 316.5411
3804.215, 315.1242
3806.144, 315.4722
3808.072, 314.3702
3810.000, 315.2367
3811.929, 315.1393
3813.857, 314.7685
3815.786, 314.3915
3817.714, 314.7429
3819.643, 315.8536
3821.571, 314.6667
3823.500, 319.1297
3825.428, 314.3204
3827.357, 314.7321
3829.285, 317.5978
3831.214, 316.0396
3833.142, 314.0132
3835.071, 313.5345
3836.999, 313.6984
3838.927, 314.3101
3840.856, 314.4715
3842.784, 314.2410
3844.713, 313.2491
3846.641, 312.9614
3848.570, 314.1786
3850.498, 315.5381
3852.427, 316.5491
3854.355, 315.7447
3856.284, 314.3868
3858.212, 313.1182
3860.141, 312.1747
3862.069, 311.5760
3863.998, 312.5419
3865.926, 313.7100
3867.854, 312.7556
3869.783, 312.1472
3871.711, 312.8322
3873.640, 312.4414
3875.568, 311.3432
3877.497, 311.7790
3879.425, 312.2988
3881.354, 311.9162
3883.282, 311.1936
3885.211, 310.1891
3887.139, 310.5081
3889.068, 311.3031
3890.996, 311.6601
3892.925, 311.5496
3894.853, 311.6729
3896.781, 310.8470
3898.710, 311.2273
3900.638, 310.9168
3902.567, 310.6967
3904.495, 310.9545
3906.424, 311.1595
3908.352, 311.0956
3910.281, 309.8485
3912.209, 308.9144
3914.138, 309.4322
3916.066, 310.0126
3917.995, 310.7734
3919.923, 311.2593
3921.852, 311.1533
3923.780, 309.2711
3925.708, 307.7765
3927.637, 307.3532
3929.565, 308.8491
3931.494, 311.4720
3933.422, 311.3647
3935.351, 311.2559
3937.279, 312.6859
3939.208, 313.4271
3941.136, 313.2581
3943.065, 311.2317
3944.993, 309.0880
3946.922, 308.0245
3948.850, 309.3425
3950.779, 308.4562
3952.707, 312.1432
3954.635, 309.0633
3956.564, 309.9010
3958.492, 309.9261
3960.421, 306.3067
3962.349, 305.8360
3964.278, 307.4111
3966.206, 307.1778
3968.135, 307.1049
3970.063, 308.7511
3971.992, 308.2447
3973.920, 306.0764
3975.849, 305.8029
3977.777, 306.4473
3979.706, 307.8619
3981.634, 309.1001
3983.563, 309.6492
3985.491, 308.9228
3987.419, 307.7227
3989.348, 305.7913
3991.276, 306.2184
3993.205, 309.5870
3995.133, 309.7945
3997.062, 308.1173
3998.990, 306.1161
4000.919, 305.5938
4002.847, 307.5653
4004.776, 307.6903
4006.704, 306.7400
4008.633, 306.6554
4010.561, 306.1667
4012.490, 304.4671
4014.418, 303.2017
4016.346, 302.7773
4018.275, 303.9919
4020.203, 305.2632
4022.132, 306.1076
4024.060, 305.6640
4025.989, 304.1229
4027.917, 303.9218
4029.846, 304.1352
4031.774, 303.1129
4033.703, 303.1340
4035.631, 304.4370
4037.560, 302.5170
4039.488, 300.4000
4041.417, 300.8424
4043.345, 301.4472
4045.273, 301.8140
4047.202, 301.9397
4049.130, 302.0274
4051.059, 302.4752
4052.987, 301.8784
4054.916, 302.3893
4056.844, 301.5940
4058.773, 302.5785
4060.701, 301.8473
4062.630, 301.1826
4064.558, 301.7596
4066.487, 300.9594
4068.415, 301.2649
4070.344, 300.2850
4072.272, 299.6591
4074.200, 299.2904
4076.129, 299.5461
4078.057, 298.5978
4079.986, 299.2656
4081.914, 300.5141
4083.843, 298.9654
4085.771, 298.1579
4087.700, 297.6313
4089.628, 298.9042
4091.557, 297.9515
4093.485, 297.5032
4095.414, 297.4483
4097.342, 295.7395
4099.271, 295.3448
4101.199, 294.5383
4103.127, 296.7336
4105.056, 297.4632
4106.984, 296.1185
4108.913, 296.3001
4110.841, 296.8018
4112.770, 296.6703
4114.698, 296.6816
4116.627, 296.4030
4118.555, 295.5648
4120.484, 295.5447
4122.412, 297.8399
4124.341, 297.4238
4126.269, 293.3165
4128.198, 293.3448
4130.126, 295.6823
4132.055, 296.3305
4133.983, 297.2513
4135.912, 296.8681
4137.840, 295.5511
4139.769, 294.9512
4141.697, 295.9860
4143.625, 297.5597
4145.554, 296.5268
4147.482, 296.7166
4149.411, 298.4744
4151.339, 295.1407
4153.268, 291.3861
4155.196, 292.1834
4157.125, 295.0038
4159.053, 297.5977
4160.981, 295.5871
4162.910, 294.5114
4164.838, 299.3816
4166.767, 300.4180
4168.695, 297.8513
4170.624, 295.8069
4172.552, 295.5108
4174.481, 297.2741
4176.409, 297.1859
4178.338, 295.6552
4180.266, 294.1900
4182.195, 294.0624
4184.123, 295.3360
4186.052, 294.3858
4187.980, 293.0416
4189.909, 292.1912
4191.837, 291.4362
4193.766, 291.4511
4195.694, 291.2067
4197.623, 291.1490
4199.551, 293.1472
4201.479, 294.1219
4203.408, 292.9555
4205.336, 292.4247
4207.265, 292.0056
4209.193, 289.5320
4211.122, 288.6047
4213.050, 290.2389
4214.979, 292.8806
4216.907, 295.5663
4218.835, 296.0899
4220.764, 295.6119
4222.692, 294.8545
4224.621, 293.9973
4226.549, 293.9233
4228.478, 293.7517
4230.406, 292.7912
4232.335, 293.8279
4234.263, 291.8998
4236.192, 291.1878
4238.120, 292.4749
4240.049, 292.2942
4241.977, 290.9493
4243.906, 292.3520
4245.834, 293.7952
4247.763, 293.4410
4249.691, 294.0504
4251.620, 294.9661
4253.548, 293.6230
4255.477, 292.0601
4257.405, 291.0510
4259.333, 290.1979
4261.262, 289.7358
4263.190, 289.0700
4265.119, 290.6660
4267.047, 288.7138
4268.976, 289.7346
4270.904, 290.8246
4272.833, 287.4532
4274.761, 286.4275
4276.689, 288.1359
4278.618, 286.6345
4280.546, 285.6942
4282.475, 289.4043
4284.403, 289.2217
4286.332, 286.2678
4288.260, 286.2651
4290.189, 285.9583
4292.117, 283.3007
4294.046, 284.0239
4295.974, 286.0037
4297.903, 285.3493
4299.831, 284.4061
4301.760, 283.6974
4303.688, 283.7501
4305.617, 283.9590
4307.545, 283.8914
4309.474, 282.9506
4311.402, 281.2387
4313.331, 279.0508
4315.259, 278.5014
4317.188, 278.1828
4319.116, 281.0338
4321.044, 278.7863
4322.973, 279.8271
4324.901, 279.9113
4326.830, 277.7704
4328.758, 279.0764
4330.687, 280.7696
4332.615, 279.7397
4334.543, 278.1349
4336.472, 276.6700
4338.400, 278.0882
4340.329, 279.3107
4342.257, 278.7771
4344.186, 277.5233
4346.114, 276.9049
4348.043, 277.1495
4349.971, 281.7362
4351.900, 278.2996
4353.828, 279.9753
4355.757, 281.2787
4357.685, 276.2551
4359.614, 275.3115
4361.542, 277.6720
4363.471, 276.8727
4365.399, 276.7946
4367.328, 279.0301
4369.256, 280.2654
4371.185, 280.5397
4373.113, 280.0762
4375.042, 279.0240
4376.970, 277.7504
4378.898, 278.6163
4380.827, 279.4847
4382.755, 278.6739
4384.684, 278.4697
4386.612, 278.3173
4388.541, 276.7388
4390.469, 275.3745
4392.397, 274.6273
4394.326, 274.2613
4396.254, 273.6223
4398.183, 271.6719
4400.111, 272.2034
4402.040, 273.8477
4403.968, 271.5813
4405.897, 269.7394
4407.825, 269.5942
4409.754, 271.4844
4411.682, 272.7043
4413.611, 270.3752
4415.539, 269.1356
4417.468, 269.2732
4419.396, 270.1522
4421.325, 271.5116
4423.253, 273.2049
4425.182, 272.4786
4427.110, 270.7009
4429.039, 268.9215
4430.967, 267.8740
4432.896, 268.1462
4434.824, 268.1290
4436.752, 267.3052
4438.681, 269.3759
4440.609, 266.6584
4442.538, 266.0298
4444.466, 267.0177
4446.395, 267.4840
4448.323, 267.2185
4450.251, 264.9692
4452.180, 265.8617
4454.108, 265.5922
4456.037, 265.9494
4457.965, 266.6674
4459.894, 267.4942
4461.822, 268.2969
4463.751, 268.4843
4465.679, 267.5983
4467.608, 266.7975
4469.536, 266.4187
4471.465, 265.8188
4473.393, 265.3947
4475.322, 265.3383
4477.250, 266.5723
4479.179, 268.0155
4481.107, 266.5639
4483.036, 266.1513
4484.964, 267.4259
4486.893, 264.4864
4488.821, 261.9852
4490.750, 262.5589
4492.678, 264.0168
4494.606, 265.3439
4496.535, 265.3256
4498.463, 264.9708
4500.392, 264.4037
4502.320, 263.4448
4504.249, 261.9118
4506.177, 259.1789
4508.105, 261.5568
4510.034, 264.3797
4511.962, 261.9136
4513.891, 261.8128
4515.819, 263.5689
4517.748, 264.4990
4519.676, 264.4319
4521.605, 263.4695
4523.533, 262.5207
4525.462, 261.5249
4527.390, 260.2864
4529.319, 260.8676
4531.247, 262.0373
4533.176, 262.3522
4535.104, 261.0338
4537.033, 258.5867
4538.961, 256.5118
4540.890, 256.9356
4542.818, 260.6355
4544.747, 260.1043
4546.675, 258.5771
4548.604, 258.2979
4550.532, 257.8091
4552.460, 257.4175
4554.389, 258.1552
4556.317, 257.8788
4558.246, 256.8295
4560.174, 257.6400
4562.103, 258.7760
4564.031, 259.8191
4565.959, 258.3205
4567.888, 256.3823
4569.816, 255.2660
4571.745, 257.0306
4573.673, 259.2838
4575.602, 258.0894
4577.530, 255.8065
4579.459, 253.7646
4581.387, 255.8161
4583.316, 257.4421
4585.244, 257.0861
4587.173, 255.9480
4589.101, 254.7119
4591.030, 253.6884
4592.958, 253.0647
4594.887, 252.1812
4596.815, 252.6773
4598.744, 251.7893
4600.672, 252.8753
4602.601, 252.5587
4604.529, 252.3226
4606.458, 252.4574
4608.386, 251.6677
4610.314, 251.2248
4612.243, 250.6118
4614.171, 250.4622
4616.100, 250.4526
4618.028, 250.3334
4619.957, 250.2331
4621.885, 250.1272
4623.813, 249.8623
4625.742, 249.7386
4627.670, 249.7112
4629.599, 249.0551
4631.527, 250.2104
4633.456, 253.2043
4635.384, 250.8185
4637.313, 249.6049
4639.241, 252.7886
4641.170, 252.0100
4643.098, 250.2232
4645.027, 250.5992
4646.955, 250.1748
4648.884, 250.0662
4650.812, 249.7401
4652.741, 249.4893
4654.669, 248.6018
4656.598, 248.3132
4658.526, 247.3063
4660.455, 245.1800
4662.383, 246.4318
4664.312, 248.1590
4666.240, 249.2380
4668.168, 246.9693
4670.097, 245.0974
4672.025, 245.9452
4673.954, 247.6679
4675.882, 248.6403
4677.811, 246.5857
4679.739, 245.7118
4681.667, 245.8492
4683.596, 246.5624
4685.524, 246.5152
4687.453, 245.5186
4689.381, 242.6207
4691.310, 241.5369
4693.238, 243.0610
4695.167, 247.6494
4697.095, 249.6551
4699.024, 246.7950
4700.952, 243.2749
4702.881, 241.7205
4704.809, 243.5046
4706.738, 243.8200
4708.666, 243.5900
4710.595, 243.8961
4712.523, 243.9282
4714.452, 243.5567
4716.380, 242.1872
4718.309, 243.8791
4720.237, 246.5428
4722.166, 246.1404
4724.094, 242.5524
4726.022, 238.2966
4727.951, 242.1210
4729.879, 243.4427
4731.808, 240.9677
4733.736, 240.1154
4735.665, 240.6151
4737.593, 241.9734
4739.521, 241.2915
4741.450, 240.1363
4743.378, 239.2297
4745.307, 238.1940
4747.235, 238.0940
4749.164, 237.3548
4751.092, 236.9493
4753.021, 236.7703
4754.949, 236.5412
4756.878, 236.7175
4758.806, 237.2647
4760.735, 238.1870
4762.663, 238.4758
4764.592, 238.6399
4766.520, 239.5126
4768.449, 238.8751
4770.377, 239.2952
4772.306, 240.1313
4774.234, 238.6014
4776.163, 236.4005
4778.091, 239.9640
4780.020, 240.3849
4781.948, 237.6662
4783.876, 238.2077
4785.805, 237.3646
4787.733, 234.6895
4789.662, 232.9849
4791.590, 233.4633
4793.519, 235.7935
4795.447, 235.9468
4797.375, 234.9017
4799.304, 233.2168
4801.232, 236.8481
4803.161, 238.8285
4805.089, 236.7137
4807.018, 234.4425
4808.946, 233.2740
4810.875, 233.8897
4812.803, 234.5478
4814.732, 234.8520
4816.660, 234.6055
4818.589, 232.6783
4820.517, 231.1648
4822.446, 231.6810
4824.374, 232.1888
4826.303, 233.0419
4828.231, 234.6468
4830.160, 232.9979
4832.088, 231.2309
4834.017, 233.1090
4835.945, 230.6051
4837.874, 228.6657
4839.802, 232.3761
4841.730, 231.9533
4843.659, 229.4730
4845.587, 227.1445
4847.516, 228.3483
4849.444, 230.9268
4851.373, 232.7593
4853.301, 232.1719
4855.229, 230.9697
4857.158, 231.6862
4859.086, 231.5068
4861.015, 230.9717
4862.943, 230.9208
4864.872, 231.4115
4866.800, 231.2193
4868.729, 227.9904
4870.657, 227.1986
4872.586, 227.4768
4874.514, 226.5113
4876.443, 226.7079
4878.371, 227.4695
4880.300, 227.9071
4882.228, 227.5358
4884.157, 226.9670
4886.085, 226.9737
4888.014, 226.8696
4889.942, 227.2038
4891.871, 229.5821
4893.799, 226.0739
4895.728, 221.6779
4897.656, 223.5431
4899.584, 223.5344
4901.513, 222.8405
4903.441, 223.3147
4905.370, 226.3553
4907.298, 228.7744
4909.227, 226.6244
4911.155, 223.8324
4913.083, 223.2183
4915.012, 222.3633
4916.940, 220.9299
4918.869, 223.0365
4920.797, 220.3515
4922.726, 221.9815
4924.654, 224.5219
4926.583, 225.3179
4928.511, 225.0278
4930.440, 224.4600
4932.368, 224.1886
4934.297, 223.6414
4936.225, 223.5895
4938.154, 224.4388
4940.082, 221.8067
4942.011, 220.0542
4943.939, 221.6895
4945.868, 220.2902
4947.796, 220.1429
4949.725, 220.2138
4951.653, 219.5647
4953.582, 219.6904
4955.510, 218.8683
4957.438, 218.6879
4959.367, 217.7700
4961.295, 216.0324
4963.224, 216.2211
4965.152, 217.2658
4967.081, 218.5814
4969.009, 219.4997
4970.938, 219.1685
4972.866, 217.9819
4974.794, 217.7600
4976.723, 217.9548
4978.651, 218.2701
4980.580, 218.5876
4982.508, 217.6880
4984.437, 215.8113
4986.365, 212.5737
4988.294, 213.2122
4990.222, 215.8201
4992.151, 217.6818
4994.079, 216.1357
4996.008, 213.9741
4997.936, 214.2039
4999.865, 216.1157
5001.793, 217.0878
5003.722, 215.2790
5005.650, 216.3770
5007.579, 215.5780
5009.507, 215.4605
5011.436, 214.5957
5013.364, 213.0985
5015.292, 212.6588
5017.221, 214.3155
5019.149, 215.3990
5021.078, 215.0518
5023.006, 212.2203
5024.935, 211.5568
5026.863, 212.7340
5028.792, 211.5015
5030.720, 212.1237
5032.648, 213.2268
5034.577, 210.5088
5036.505, 210.4847
5038.434, 211.2709
5040.362, 209.8028
5042.291, 210.3275
5044.219, 210.0260
5046.148, 210.0446
5048.076, 209.9893
5050.005, 209.5540
5051.933, 210.1528
5053.862, 209.6945
5055.790, 208.5153
5057.719, 207.2159
5059.647, 209.3950
5061.576, 209.5840
5063.504, 207.7681
5065.433, 208.1422
5067.361, 207.4230
5069.290, 206.2623
5071.218, 207.0169
5073.146, 206.1838
5075.075, 205.2454
5077.003, 206.2769
5078.932, 208.4012
5080.860, 209.3381
5082.789, 207.2669
5084.717, 207.9763
5086.646, 207.8692
5088.574, 205.9093
5090.502, 204.8306
5092.431, 205.0166
5094.359, 205.8700
5096.288, 204.9675
5098.216, 204.2191
5100.145, 203.9097
5102.073, 203.9082
5104.002, 204.9690
5105.930, 205.5991
5107.859, 203.7025
5109.787, 206.4619
5111.716, 208.0416
5113.644, 205.2479
5115.573, 205.1824
5117.501, 204.5505
5119.430, 202.8806
5121.358, 203.0503
5123.287, 204.0158
5125.215, 205.0283
5127.144, 204.9954
5129.072, 205.0464
5131.000, 204.6648
5132.929, 203.1162
5134.857, 201.5694
5136.786, 200.3324
5138.714, 199.5234
5140.643, 199.6636
5142.571, 200.1031
5144.500, 200.6409
5146.428, 201.6532
5148.356, 201.9188
5150.285, 201.5307
5152.213, 200.8307
5154.142, 200.4264
5156.070, 200.8556
5157.999, 200.4314
5159.927, 201.3418
5161.856, 200.0890
5163.784, 200.6390
5165.713, 199.8669
5167.641, 199.4343
5169.570, 199.2530
5171.498, 196.5960
5173.427, 198.0844
5175.355, 201.2824
5177.284, 202.1642
5179.212, 199.8464
5181.141, 196.8787
5183.069, 194.9671
5184.998, 194.9582
5186.926, 194.8699
5188.854, 194.5843
5190.783, 196.6542
5192.711, 198.1428
5194.640, 198.3108
5196.568, 199.1364
5198.497, 198.7661
5200.425, 198.3589
5202.354, 197.0935
5204.282, 194.6745
5206.210, 192.8267
5208.139, 192.2365
5210.067, 193.9477
5211.996, 193.5106
5213.924, 192.6387
5215.853, 195.7940
5217.781, 194.0129
5219.710, 192.3330
5221.638, 194.0297
5223.567, 193.6920
5225.495, 193.7272
5227.424, 194.0575
5229.352, 191.6347
5231.281, 190.8729
5233.209, 191.0124
5235.138, 189.9889
5237.066, 192.3403
5238.995, 193.1293
5240.923, 190.6408
5242.852, 192.4552
5244.780, 192.3955
5246.708, 190.7524
5248.637, 192.0845
5250.565, 190.9404
5252.494, 190.0196
5254.422, 192.0767
5256.351, 191.0595
5258.279, 190.5378
5260.208, 191.0910
5262.136, 189.4331
5264.064, 187.1741
5265.993, 185.9735
5267.921, 188.0872
5269.850, 190.0102
5271.778, 190.9307
5273.707, 190.5638
5275.635, 189.1856
5277.564, 188.6802
5279.492, 188.7918
5281.421, 187.9753
5283.349, 188.3583
5285.278, 188.7722
5287.206, 188.2782
5289.135, 188.1497
5291.063, 185.9404
5292.992, 182.9775
5294.920, 184.8419
5296.849, 182.6999
5298.777, 183.3777
5300.706, 182.5684
5302.634, 184.3881
5304.563, 186.3904
5306.491, 186.3710
5308.419, 186.9846
5310.348, 184.9947
5312.276, 181.8882
5314.205, 179.6988
5316.133, 181.1622
5318.062, 183.5392
5319.990, 185.1961
5321.918, 184.3779
5323.847, 183.0062
5325.775, 182.0075
5327.704, 182.0338
5329.632, 182.3132
5331.561, 182.4499
5333.489, 182.1454
5335.418, 180.4172
5337.346, 179.3678
5339.275, 179.2572
5341.203, 180.1036
5343.132, 179.8251
5345.060, 179.2973
5346.989, 179.2329
5348.917, 181.0770
5350.846, 182.7995
5352.774, 183.3831
5354.703, 181.9005
5356.631, 180.8297
5358.560, 179.4214
5360.488, 177.8577
5362.417, 178.1455
5364.345, 178.5884
5366.273, 178.5293
5368.202, 177.6952
5370.130, 178.9097
5372.059, 178.9470
5373.987, 177.6747
5375.916, 178.7764
5377.844, 177.0701
5379.772, 175.5135
5381.701, 176.6221
5383.629, 175.3965
5385.558, 174.6203
5387.486, 174.9077
5389.415, 176.1181
5391.343, 176.2513
5393.272, 176.9479
5395.200, 178.7704
5397.129, 177.8412
5399.057, 178.1634
5400.986, 176.2601
5402.914, 176.6408
5404.843, 174.8130
5406.771, 172.8668
5408.700, 172.0818
5410.628, 174.4509
5412.557, 174.0228
5414.485, 172.4344
5416.414, 171.8421
5418.342, 170.6543
5420.271, 169.3185
5422.199, 168.6579
5424.127, 170.0019
5426.056, 173.0962
5427.984, 174.1480
5429.913, 171.6554
5431.841, 167.9199
5433.770, 168.4953
5435.698, 170.8404
5437.626, 171.0951
5439.555, 168.8461
5441.483, 167.4438
5443.412, 167.1728
5445.340, 165.8367
5447.269, 165.8740
5449.197, 166.8133
5451.126, 167.8372
5453.054, 166.5551
5454.983, 166.0793
5456.911, 166.2339
5458.840, 166.0785
5460.768, 165.4425
5462.697, 166.1685
5464.625, 167.3901
5466.554, 165.3369
5468.482, 168.0151
5470.411, 169.2352
5472.339, 165.9712
5474.268, 163.8023
5476.196, 165.2429
5478.125, 166.8900
5480.053, 164.5749
5481.981, 165.4901
5483.910, 166.5659
5485.838, 166.8953
5487.767, 166.6809
5489.695, 162.9763
5491.624, 160.4750
5493.552, 160.6506
5495.480, 160.1197
5497.409, 163.1769
5499.337, 164.4071
5501.266, 160.1928
5503.194, 162.6888
5505.123, 161.3859
5507.051, 158.3520
5508.980, 158.5849
5510.908, 160.0035
5512.837, 159.6275
5514.765, 158.4449
5516.694, 159.7731
5518.622, 162.2516
5520.551, 163.5822
5522.479, 162.7730
5524.408, 159.4334
5526.336, 156.8479
5528.265, 156.2137
5530.193, 157.6010
5532.122, 157.9374
5534.050, 157.5207
5535.979, 157.7127
5537.907, 159.2508
5539.835, 155.5869
5541.764, 156.5891
5543.692, 159.3304
5545.621, 156.3012
5547.549, 156.5827
5549.478, 155.6775
5551.406, 153.5872
5553.334, 153.5580
5555.263, 155.6971
5557.191, 158.5247
5559.120, 159.5618
5561.048, 158.9648
5562.977, 154.5746
5564.905, 156.3286
5566.834, 153.9158
5568.762, 153.1405
5570.691, 152.9135
5572.619, 152.9063
5574.548, 153.1017
5576.476, 155.1269
5578.405, 154.9578
5580.333, 153.0309
5582.262, 150.6697
5584.190, 150.6716
5586.119, 149.9860
5588.047, 149.7923
5589.976, 150.1883
5591.904, 150.2211
5593.833, 149.6392
5595.761, 149.3474
5597.689, 152.7888
5599.618, 149.6333
5601.546, 149.1516
5603.475, 150.6028
5605.403, 147.5685
5607.332, 150.6532
5609.260, 152.2844
5611.188, 151.1182
5613.117, 149.5971
5615.045, 147.3829
5616.974, 147.3481
5618.902, 148.3441
5620.831, 145.6792
5622.759, 143.7555
5624.688, 145.7384
5626.616, 144.6421
5628.545, 148.1747
5630.473, 146.3684
5632.402, 146.6646
5634.330, 148.1873
5636.259, 146.7397
5638.187, 145.5095
5640.116, 144.4167
5642.044, 143.8642
5643.973, 145.3389
5645.901, 145.0643
5647.830, 146.3242
5649.758, 147.9303
5651.687, 145.9521
5653.615, 145.9026
5655.543, 143.1582
5657.472, 143.3814
5659.400, 143.6561
5661.329, 143.4394
5663.257, 143.3200
5665.186, 143.5991
5667.114, 144.5170
5669.042, 141.0708
5670.971, 143.2003
5672.899, 148.9848
5674.828, 145.6810
5676.756, 146.0799
5678.685, 144.4420
5680.613, 140.8427
5682.542, 141.1461
5684.470, 138.9229
5686.399, 136.0599
5688.327, 134.7526
5690.256, 138.1305
5692.184, 138.8702
5694.113, 139.6612
5696.041, 139.7088
5697.970, 139.8529
5699.898, 140.2959
5701.827, 138.9949
5703.755, 140.7424
5705.684, 139.4783
5707.612, 139.3232
5709.541, 140.3057
5711.469, 139.6614
5713.397, 138.9435
5715.326, 136.5115
5717.254, 136.9950
5719.183, 137.4734
5721.111, 137.4147
5723.040, 138.7768
5724.968, 136.7976
5726.896, 134.9782
5728.825, 134.4468
5730.753, 134.5879
5732.682, 134.2489
5734.610, 134.0941
5736.539, 134.1109
5738.467, 133.1287
5740.396, 132.6743
5742.324, 133.4832
5744.253, 134.4066
5746.181, 133.0973
5748.110, 132.0017
5750.038, 132.1230
5751.967, 132.7116
5753.895, 132.4716
5755.824, 132.3392
5757.752, 130.7489
5759.681, 131.4824
5761.609, 130.9357
5763.538, 130.2618
5765.466, 130.6903
5767.395, 131.6488
5769.323, 130.6004
5771.251, 131.7326
5773.180, 130.0811
5775.108, 130.7148
5777.037, 132.5907
5778.965, 127.9939
5780.894, 128.5167
5782.822, 129.9551
5784.750, 129.7585
5786.679, 127.2820
5788.607, 129.6732
5790.536, 127.7783
5792.464, 125.6271
5794.393, 127.6643
5796.321, 126.1198
5798.250, 126.8936
5800.178, 127.9658
5802.107, 128.1808
5804.035, 129.4361
5805.964, 125.9123
5807.892, 124.1800
5809.821, 124.9476
5811.749, 125.3465
5813.678, 125.2919
5815.606, 124.9762
5817.535, 124.1067
5819.463, 122.9480
5821.392, 125.2666
5823.320, 124.2503
5825.249, 123.0613
5827.177, 123.1400
5829.105, 122.1854
5831.034, 122.0532
5832.962, 122.1885
5834.891, 122.2604
5836.819, 122.1847
5838.748, 122.3699
5840.676, 122.7423
5842.604, 122.7608
5844.533, 122.3065
5846.461, 122.6936
5848.390, 121.6999
5850.318, 119.8705
5852.247, 119.2081
5854.175, 119.0105
5856.104, 120.5610
5858.032, 119.7098
5859.961, 120.7431
5861.889, 121.9690
5863.818, 118.4380
5865.746, 117.4600
5867.675, 117.4786
5869.603, 117.3469
5871.532, 117.3220
5873.460, 119.2027
5875.389, 118.0153
5877.317, 117.2933
5879.246, 120.0308
5881.174, 119.0524
5883.103, 117.5365
5885.031, 118.1702
5886.959, 117.5506
5888.888, 117.4135
5890.816, 117.6035
5892.745, 117.8777
5894.673, 117.5589
5896.602, 116.7879
5898.530, 115.5324
5900.458, 117.9215
5902.387, 117.9782
5904.315, 116.0599
5906.244, 117.2963
5908.172, 116.7188
5910.101, 115.6581
5912.029, 115.6048
5913.958, 117.1668
5915.886, 119.9532
5917.815, 114.3767
5919.743, 112.1328
5921.672, 113.9858
5923.600, 115.3358
5925.529, 114.8540
5927.457, 115.1321
5929.386, 114.5507
5931.314, 113.7712
5933.243, 116.2585
5935.171, 114.1873
5937.100, 111.4243
5939.028, 111.1575
5940.957, 113.5716
5942.885, 112.1598
5944.813, 112.5317
5946.742, 112.4110
5948.670, 111.9848
5950.599, 112.6182
5952.527, 110.0050
5954.456, 111.2920
5956.384, 111.7052
5958.313, 110.5736
5960.241, 114.1861
5962.169, 110.9372
5964.098, 110.5157
5966.026, 112.2171
5967.955, 113.4359
5969.883, 113.2883
5971.812, 113.8115
5973.740, 112.7746
5975.669, 114.2392
5977.597, 112.7637
5979.526, 116.4643
5981.454, 117.6278
5983.383, 118.2314
5985.311, 118.4821
5987.240, 117.1576
5989.168, 113.6231
5991.097, 111.8121
5993.025, 110.1194
5994.954, 108.7882
5996.882, 107.6561
5998.811, 106.9038
6000.739, 105.9362
6002.667, 105.2819
6004.596, 104.5614
6006.524, 106.9609
6008.453, 104.0851
6010.381, 105.2216
6012.310, 107.0039
6014.238, 105.9696
6016.167, 104.3894
6018.095, 102.5875
6020.023, 101.7764
6021.952, 101.1038
6023.880, 101.0040
6025.809, 106.0002
6027.737, 106.5865
6029.666, 105.7269
6031.594, 105.6661
6033.523, 106.0699
6035.451, 102.0364
6037.380, 100.3932
6039.308, 100.0872
6041.237, 101.1403
6043.165, 103.1036
6045.094, 101.0324
6047.022, 101.9641
6048.951, 101.8893
6050.879, 101.0973
6052.808, 102.3679
6054.736, 100.5777
6056.665, 101.9340
6058.593, 102.3429
6060.521, 100.9232
6062.450, 101.7259
6064.378, 100.3528
6066.307, 101.1246
6068.235, 101.3217
6070.164, 100.3609
6072.092, 98.29469
6074.021, 97.92860
6075.949, 98.50481
6077.877, 98.50170
6079.806, 98.18092
6081.734, 98.26695
6083.663, 99.64256
6085.591, 98.18592
6087.520, 98.93520
6089.448, 98.71617
6091.377, 95.98862
6093.305, 96.45965
6095.234, 93.89259
6097.162, 93.07646
6099.091, 95.90953
6101.019, 94.44250
6102.948, 98.30534
6104.876, 95.48067
6106.805, 95.11641
6108.733, 96.14806
6110.662, 97.03850
6112.590, 96.87875
6114.519, 93.64364
6116.447, 98.65965
6118.375, 99.13234
6120.304, 94.50203
6122.232, 92.03487
6124.161, 92.83846
6126.089, 90.97182
6128.018, 95.52772
6129.946, 92.61459
6131.875, 91.67880
6133.803, 95.32403
6135.731, 93.03294
6137.660, 94.44392
6139.588, 95.85085
6141.517, 93.93682
6143.445, 90.98622
6145.374, 88.80972
6147.302, 89.55019
6149.231, 91.57607
6151.159, 93.00557
6153.088, 92.74947
6155.016, 92.18495
6156.945, 91.08173
6158.873, 90.59781
6160.802, 90.70580
6162.730, 90.77092
6164.659, 90.00533
6166.587, 89.10184
6168.516, 87.69225
6170.444, 89.25867
6172.373, 88.10555
6174.301, 90.61100
6176.229, 87.83336
6178.158, 88.89752
6180.086, 89.08961
6182.015, 88.92900
6183.943, 90.42735
6185.872, 88.39069
6187.800, 87.55433
6189.729, 87.26702
6191.657, 87.40601
6193.585, 87.27518
6195.514, 87.74809
6197.442, 87.89081
6199.371, 88.66463
6201.299, 88.01223
6203.228, 87.94359
6205.156, 86.90093
6207.085, 87.64803
6209.013, 85.78520
6210.942, 83.78226
6212.870, 83.37339
6214.799, 84.52109
6216.727, 85.88235
6218.656, 85.76015
6220.584, 87.16482
6222.513, 85.48923
6224.441, 83.72845
6226.370, 84.77816
6228.298, 85.50732
6230.227, 84.63041
6232.155, 84.21385
6234.083, 84.67681
6236.012, 85.19487
6237.940, 84.54784
6239.869, 81.66682
6241.797, 82.85754
6243.726, 82.96494
6245.654, 83.41715
6247.583, 84.71761
6249.511, 84.62687
6251.439, 81.66288
6253.368, 79.44868
6255.296, 80.18804
6257.225, 80.74337
6259.153, 80.25594
6261.082, 82.15391
6263.010, 79.16338
6264.939, 82.22390
6266.867, 81.39644
6268.796, 80.73665
6270.724, 83.67119
6272.653, 79.58526
6274.581, 80.93059
6276.510, 81.03507
6278.438, 80.19051
6280.367, 79.83913
6282.295, 80.22049
6284.224, 79.48975
6286.152, 80.14507
6288.081, 79.66135
6290.009, 80.27044
6291.938, 80.28000
6293.866, 77.93584
6295.794, 77.71129
6297.723, 78.03664
6299.651, 80.29338
6301.580, 80.76927
6303.508, 79.99617
6305.437, 79.64292
6307.365, 76.91538
6309.293, 76.43158
6311.222, 75.80827
6313.150, 75.13799
6315.079, 76.70949
6317.007, 79.99489
6318.936, 78.50465
6320.864, 78.37648
6322.793, 75.36819
6324.721, 75.98959
6326.650, 75.43193
6328.578, 74.98238
6330.507, 76.23504
6332.435, 74.55605
6334.364, 75.94314
6336.292, 74.11069
6338.221, 72.87367
6340.149, 74.22224
6342.078, 72.36989
6344.006, 73.33515
6345.935, 72.80179
6347.863, 74.02188
6349.792, 73.83521
6351.720, 72.38744
6353.648, 74.09997
6355.577, 74.20424
6357.505, 73.18817
6359.434, 74.11587
6361.362, 73.62540
6363.291, 72.03011
6365.219, 72.28441
6367.147, 71.89246
6369.076, 72.65736
6371.004, 72.12352
6372.933, 73.89287
6374.861, 74.31821
6376.790, 72.26461
6378.718, 71.84246
6380.647, 73.06081
6382.575, 72.60854
6384.504, 72.87424
6386.432, 73.01608
6388.361, 72.50591
6390.289, 71.82008
6392.218, 69.60980
6394.146, 69.84943
6396.075, 69.61198
6398.003, 70.34773
6399.932, 69.67598
6401.860, 69.88066
6403.789, 69.28484
6405.717, 69.37578
6407.646, 70.90947
6409.574, 69.96269
6411.502, 69.75851
6413.431, 70.23949
6415.359, 68.84684
6417.288, 69.13766
6419.216, 70.38434
6421.145, 69.48245
6423.073, 68.99578
6425.001, 69.48101
6426.930, 70.12555
6428.858, 70.27051
6430.787, 69.40331
6432.715, 68.94199
6434.644, 70.64127
6436.572, 70.27458
6438.501, 68.56670
6440.429, 68.63359
6442.358, 71.16017
6444.286, 66.97221
6446.215, 66.78395
6448.143, 68.77976
6450.072, 65.48962
6452.000, 63.23153
6453.929, 67.53590
6455.857, 67.28359
6457.786, 68.88897
6459.714, 66.35303
6461.643, 66.02688
6463.571, 66.60594
6465.500, 65.08512
6467.428, 63.55450
6469.356, 68.71252
6471.285, 66.54826
6473.213, 68.11974
6475.142, 66.38956
6477.070, 64.02081
6478.999, 63.72853
6480.927, 64.26558
6482.855, 62.37814
6484.784, 62.92870
6486.712, 62.05762
6488.641, 63.10957
6490.569, 66.33064
6492.498, 67.54865
6494.426, 65.13185
6496.355, 63.40279
6498.283, 63.76019
6500.212, 63.51372
6502.140, 65.76616
6504.069, 63.75941
6505.997, 60.58684
6507.926, 61.55497
6509.854, 64.73676
6511.783, 61.96487
6513.711, 62.73782
6515.640, 63.51565
6517.568, 61.74143
6519.497, 61.04442
6521.425, 61.93296
6523.354, 61.72688
6525.282, 62.36321
6527.210, 61.30160
6529.139, 61.34669
6531.067, 59.97102
6532.996, 60.80389
6534.924, 60.27694
6536.853, 60.44603
6538.781, 61.60003
6540.709, 59.80849
6542.638, 59.68776
6544.566, 59.60853
6546.495, 60.24858
6548.423, 61.47099
6550.352, 62.01015
6552.280, 61.26250
6554.209, 61.37878
6556.137, 61.50679
6558.066, 59.70944
6559.994, 61.07279
6561.923, 61.38905
6563.851, 59.70336
6565.780, 57.82399
6567.708, 59.53032
6569.637, 61.66790
6571.565, 61.47471
6573.494, 58.73066
6575.422, 57.47404
6577.351, 58.98545
6579.279, 60.43566
6581.208, 59.21519
6583.136, 55.90522
6585.064, 56.92569
6586.993, 57.23347
6588.921, 54.96040
6590.850, 58.83989
6592.778, 57.74235
6594.707, 54.52116
6596.635, 56.06105
6598.563, 57.03099
6600.492, 57.31137
6602.420, 57.99555
6604.349, 57.71386
6606.277, 58.06401
6608.206, 56.62585
6610.134, 55.79929
6612.063, 56.32447
6613.991, 56.54227
6615.920, 55.08281
6617.848, 54.84946
6619.777, 55.64548
6621.705, 54.79185
6623.634, 55.71921
6625.562, 57.05103
6627.491, 56.10125
6629.419, 53.87553
##END=



