##NAMES=Abelsonite
##RRUFFID=R070007
##IDEAL CHEMISTRY=NiC_31_H_32_N_4_
##LOCALITY=Green River Formation, Utah, USA
##OWNER=RRUFF
##SOURCE=Geophysical Laboratory, Carnegie Institution of Washington
##DESCRIPTION=Purple platy crystals embedded in drill core
##STATUS=The identification of this mineral is confirmed by single-crystal X-ray diffraction and chemical analysis
##URL=https://www.rruff.net/odr/rruff_sample/R070007
##MEASURED CHEMISTRY=(Ni_0.92_Fe^2+^_0.05_Cr_0.02_)C_31_H_32_N_4_ ; C, H and N not measured but estimated by stoichiometry
##DIFFRACTION SAMPLE DESCRIPTION=Single crystal, powder profile is calculated for Cu radiation
##CELL PARAMETERS=a: 8.5 b: 11.2 c: 7.26 alpha: 91.21 beta: 113.61 gamma: 79.73 volume: 622 crystal system: triclinic
##FILETYPE=Raman RAW
##RAMAN WAVELENGTH=785

233.3128, 57152.48
235.2412, 57261.07
237.1697, 57364.70
239.0982, 57480.22
241.0266, 57593.77
242.9551, 57702.70
244.8836, 57797.93
246.8120, 57856.58
248.7405, 57885.76
250.6690, 57910.46
252.5974, 57927.74
254.5259, 57939.24
256.4544, 57953.45
258.3828, 57963.18
260.3113, 57953.41
262.2398, 57931.95
264.1682, 57919.88
266.0967, 57913.61
268.0252, 57889.17
269.9536, 57829.78
271.8821, 57794.13
273.8106, 57828.65
275.7390, 57857.77
277.6675, 57835.04
279.5960, 57780.23
281.5244, 57717.57
283.4529, 57654.77
285.3814, 57626.63
287.3098, 57644.54
289.2383, 57661.59
291.1668, 57661.51
293.0952, 57673.00
295.0237, 57714.41
296.9522, 57761.54
298.8806, 57804.03
300.8091, 57831.93
302.7376, 57808.80
304.6660, 57720.99
306.5945, 57650.11
308.5230, 57600.70
310.4514, 57570.20
312.3799, 57536.79
314.3084, 57545.14
316.2368, 57667.51
318.1653, 57821.26
320.0938, 57901.72
322.0222, 57911.01
323.9507, 57891.35
325.8792, 57813.27
327.8077, 57777.25
329.7361, 57800.88
331.6646, 57838.91
333.5931, 57884.92
335.5215, 57927.18
337.4500, 57952.50
339.3785, 57971.79
341.3069, 58013.41
343.2354, 58071.39
345.1639, 58079.43
347.0923, 58040.76
349.0208, 57979.15
350.9493, 57892.78
352.8777, 57788.21
354.8062, 57674.06
356.7347, 57541.27
358.6631, 57376.06
360.5916, 57191.29
362.5201, 57007.63
364.4485, 56816.39
366.3770, 56630.45
368.3055, 56453.34
370.2339, 56285.48
372.1624, 56145.02
374.0909, 55983.58
376.0193, 55742.68
377.9478, 55521.57
379.8763, 55432.67
381.8047, 55404.66
383.7332, 55268.91
385.6617, 55040.80
387.5901, 54889.63
389.5186, 54862.86
391.4471, 54818.46
393.3755, 54726.80
395.3040, 54607.43
397.2325, 54460.51
399.1609, 54319.55
401.0894, 54184.36
403.0179, 54067.84
404.9464, 53990.36
406.8748, 53937.40
408.8033, 53858.32
410.7318, 53750.12
412.6602, 53645.57
414.5887, 53539.48
416.5172, 53430.68
418.4456, 53311.04
420.3741, 53233.57
422.3026, 53251.74
424.2310, 53248.29
426.1595, 53138.73
428.0880, 52990.25
430.0164, 52888.04
431.9449, 52813.36
433.8734, 52741.91
435.8018, 52688.05
437.7303, 52634.73
439.6588, 52577.45
441.5872, 52502.23
443.5157, 52391.09
445.4442, 52255.32
447.3726, 52110.95
449.3011, 51996.51
451.2296, 51930.80
453.1580, 51893.78
455.0865, 51858.79
457.0150, 51829.19
458.9434, 51768.02
460.8719, 51645.64
462.8004, 51501.23
464.7288, 51388.75
466.6573, 51337.10
468.5858, 51278.14
470.5142, 51156.78
472.4427, 51012.15
474.3712, 50915.28
476.2996, 50878.43
478.2281, 50837.01
480.1566, 50737.02
482.0850, 50612.16
484.0135, 50544.91
485.9420, 50538.42
487.8704, 50492.58
489.7989, 50417.64
491.7274, 50316.81
493.6558, 50105.33
495.5843, 49941.80
497.5128, 49960.50
499.4412, 50009.41
501.3697, 49931.73
503.2982, 49804.83
505.2266, 49729.04
507.1551, 49672.77
509.0836, 49569.39
511.0120, 49436.68
512.9405, 49331.68
514.8690, 49233.95
516.7974, 49116.62
518.7259, 49003.40
520.6544, 48927.16
522.5828, 48875.90
524.5113, 48799.62
526.4398, 48677.81
528.3682, 48592.88
530.2967, 48601.95
532.2252, 48583.55
534.1536, 48419.80
536.0821, 48220.57
538.0106, 48151.46
539.9390, 48142.59
541.8675, 48060.30
543.7960, 47944.94
545.7244, 47845.34
547.6529, 47725.93
549.5814, 47635.07
551.5098, 47627.64
553.4383, 47585.59
555.3668, 47473.75
557.2952, 47388.34
559.2237, 47330.83
561.1522, 47237.24
563.0806, 47126.29
565.0091, 47038.01
566.9376, 46943.86
568.8660, 46827.06
570.7945, 46726.49
572.7230, 46674.67
574.6514, 46658.84
576.5799, 46646.86
578.5084, 46579.56
580.4368, 46471.33
582.3653, 46331.88
584.2938, 46124.49
586.2222, 45988.16
588.1507, 45999.80
590.0792, 45989.86
592.0076, 45865.59
593.9361, 45760.40
595.8646, 45734.18
597.7930, 45705.93
599.7215, 45639.30
601.6500, 45556.59
603.5784, 45463.89
605.5069, 45387.26
607.4354, 45349.17
609.3638, 45287.31
611.2923, 45157.16
613.2208, 45035.56
615.1492, 44979.97
617.0777, 44923.26
619.0062, 44824.04
620.9346, 44704.40
622.8631, 44583.43
624.7916, 44477.62
626.7200, 44397.73
628.6485, 44323.47
630.5770, 44212.74
632.5054, 44055.61
634.4339, 43940.56
636.3624, 43926.36
638.2908, 43932.64
640.2193, 43874.86
642.1478, 43779.69
644.0762, 43745.36
646.0047, 43748.42
647.9332, 43646.10
649.8616, 43434.74
651.7901, 43319.59
653.7186, 43351.05
655.6470, 43336.26
657.5755, 43227.47
659.5040, 43131.24
661.4324, 43063.03
663.3609, 42997.55
665.2894, 42927.03
667.2178, 42834.29
669.1463, 42708.91
671.0748, 42601.30
673.0032, 42520.76
674.9317, 42478.73
676.8602, 42511.16
678.7886, 42510.30
680.7171, 42422.07
682.6456, 42333.32
684.5740, 42249.26
686.5025, 42136.73
688.4310, 42058.23
690.3594, 42041.43
692.2879, 42054.93
694.2164, 42064.82
696.1448, 42011.09
698.0734, 41933.93
700.0018, 41956.00
701.9303, 42042.78
703.8588, 42008.95
705.7872, 41855.03
707.7157, 41752.62
709.6442, 41712.97
711.5726, 41660.16
713.5011, 41604.96
715.4296, 41533.79
717.3580, 41420.11
719.2865, 41308.39
721.2150, 41225.22
723.1434, 41152.70
725.0719, 41059.05
727.0004, 40975.91
728.9288, 40966.86
730.8573, 40948.70
732.7858, 40828.45
734.7142, 40681.70
736.6427, 40576.28
738.5712, 40495.31
740.4996, 40399.51
742.4281, 40291.74
744.3566, 40215.86
746.2850, 40183.73
748.2135, 40180.70
750.1420, 40183.50
752.0704, 40132.34
753.9989, 40031.44
755.9274, 39937.37
757.8558, 39857.47
759.7843, 39803.48
761.7128, 39771.98
763.6412, 39732.52
765.5697, 39684.01
767.4982, 39634.22
769.4266, 39582.02
771.3551, 39542.18
773.2836, 39528.00
775.2120, 39479.01
777.1405, 39355.41
779.0690, 39261.76
780.9974, 39253.46
782.9259, 39235.29
784.8544, 39157.36
786.7828, 39095.54
788.7113, 39100.34
790.6398, 39096.21
792.5682, 39040.54
794.4967, 38969.86
796.4252, 38902.30
798.3536, 38832.04
800.2821, 38761.94
802.2106, 38689.77
804.1390, 38592.75
806.0675, 38500.76
807.9960, 38473.43
809.9244, 38456.43
811.8529, 38361.32
813.7814, 38229.28
815.7098, 38127.29
817.6383, 38041.34
819.5668, 37953.41
821.4952, 37873.21
823.4237, 37804.44
825.3522, 37738.66
827.2806, 37650.26
829.2091, 37538.63
831.1376, 37444.82
833.0660, 37379.78
834.9945, 37312.25
836.9230, 37231.82
838.8514, 37129.77
840.7799, 36996.53
842.7084, 36861.41
844.6368, 36748.13
846.5653, 36663.70
848.4938, 36581.50
850.4222, 36502.63
852.3507, 36467.79
854.2792, 36390.09
856.2076, 36209.87
858.1361, 36069.40
860.0646, 36024.84
861.9930, 36000.23
863.9215, 35971.60
865.8500, 35937.88
867.7784, 35893.38
869.7069, 35849.04
871.6354, 35830.09
873.5638, 35811.30
875.4923, 35755.11
877.4208, 35696.96
879.3492, 35662.94
881.2777, 35621.93
883.2062, 35573.90
885.1346, 35537.05
887.0631, 35512.72
888.9916, 35489.85
890.9200, 35442.38
892.8485, 35395.31
894.7770, 35356.63
896.7054, 35312.61
898.6339, 35296.02
900.5624, 35283.81
902.4908, 35251.57
904.4193, 35232.51
906.3478, 35222.84
908.2762, 35180.41
910.2047, 35101.64
912.1332, 35039.41
914.0616, 35007.37
915.9901, 34952.88
917.9186, 34866.12
919.8470, 34811.56
921.7755, 34843.42
923.7040, 34888.44
925.6324, 34829.90
927.5609, 34735.91
929.4894, 34716.86
931.4178, 34727.05
933.3463, 34691.23
935.2748, 34603.21
937.2032, 34526.65
939.1317, 34539.27
941.0602, 34614.01
942.9886, 34630.48
944.9171, 34581.72
946.8456, 34556.71
948.7740, 34526.99
950.7025, 34464.06
952.6310, 34445.38
954.5594, 34457.44
956.4879, 34447.68
958.4164, 34452.90
960.3448, 34463.69
962.2733, 34421.49
964.2018, 34289.62
966.1302, 34148.78
968.0587, 34096.49
969.9872, 34081.82
971.9156, 34067.82
973.8441, 34048.08
975.7726, 34001.37
977.7010, 33936.19
979.6295, 33906.71
981.5580, 33927.86
983.4865, 33919.54
985.4149, 33840.61
987.3434, 33728.58
989.2719, 33653.94
991.2003, 33646.81
993.1288, 33636.85
995.0573, 33581.58
996.9857, 33530.59
998.9142, 33474.72
1000.843, 33394.52
1002.771, 33364.45
1004.700, 33362.00
1006.628, 33287.58
1008.557, 33177.94
1010.485, 33100.36
1012.413, 33049.72
1014.342, 33024.20
1016.270, 33012.23
1018.199, 32970.91
1020.127, 32901.58
1022.056, 32878.12
1023.984, 32895.55
1025.913, 32858.75
1027.841, 32783.26
1029.770, 32739.69
1031.698, 32719.34
1033.627, 32707.15
1035.555, 32715.60
1037.484, 32745.66
1039.412, 32760.52
1041.340, 32718.22
1043.269, 32654.45
1045.197, 32617.51
1047.126, 32606.59
1049.054, 32621.72
1050.983, 32630.56
1052.911, 32615.78
1054.840, 32608.93
1056.768, 32568.88
1058.697, 32507.78
1060.625, 32546.78
1062.554, 32644.63
1064.482, 32680.56
1066.411, 32657.09
1068.339, 32580.55
1070.267, 32474.74
1072.196, 32416.83
1074.124, 32427.02
1076.053, 32474.29
1077.981, 32504.75
1079.910, 32500.87
1081.838, 32475.63
1083.767, 32427.29
1085.695, 32417.08
1087.624, 32433.64
1089.552, 32427.73
1091.481, 32487.23
1093.409, 32574.83
1095.338, 32591.56
1097.266, 32584.32
1099.194, 32588.98
1101.123, 32615.28
1103.051, 32656.73
1104.980, 32698.11
1106.908, 32736.63
1108.837, 32785.86
1110.765, 32878.81
1112.694, 32924.05
1114.622, 32895.72
1116.551, 32902.11
1118.479, 32942.23
1120.408, 32957.59
1122.336, 32947.95
1124.265, 32909.14
1126.193, 32856.43
1128.121, 32839.54
1130.050, 32839.91
1131.978, 32813.34
1133.907, 32770.38
1135.835, 32776.29
1137.764, 32796.30
1139.692, 32673.51
1141.621, 32489.91
1143.549, 32413.12
1145.478, 32391.04
1147.406, 32379.44
1149.335, 32370.70
1151.263, 32349.18
1153.192, 32322.43
1155.120, 32294.69
1157.048, 32256.29
1158.977, 32213.32
1160.905, 32155.07
1162.834, 32049.22
1164.762, 31968.70
1166.691, 31949.43
1168.619, 31944.63
1170.548, 31953.75
1172.476, 31954.60
1174.405, 31931.78
1176.333, 31887.53
1178.262, 31828.62
1180.190, 31818.38
1182.119, 31854.05
1184.047, 31859.25
1185.975, 31838.47
1187.904, 31773.85
1189.832, 31671.13
1191.761, 31628.36
1193.689, 31630.29
1195.618, 31608.69
1197.546, 31579.76
1199.475, 31594.81
1201.403, 31620.47
1203.332, 31592.15
1205.260, 31557.74
1207.189, 31564.89
1209.117, 31590.40
1211.046, 31618.08
1212.974, 31660.02
1214.902, 31732.23
1216.831, 31800.95
1218.759, 31858.04
1220.688, 31909.20
1222.616, 31952.85
1224.545, 32004.47
1226.473, 32067.19
1228.402, 32117.56
1230.330, 32156.25
1232.259, 32279.34
1234.187, 32458.58
1236.116, 32494.44
1238.044, 32427.98
1239.973, 32382.31
1241.901, 32361.65
1243.829, 32383.63
1245.758, 32399.92
1247.686, 32374.60
1249.615, 32305.74
1251.543, 32154.10
1253.472, 32005.36
1255.400, 31900.58
1257.329, 31824.76
1259.257, 31781.20
1261.186, 31752.37
1263.114, 31743.76
1265.043, 31712.89
1266.971, 31651.41
1268.900, 31637.61
1270.828, 31669.66
1272.756, 31647.55
1274.685, 31581.75
1276.613, 31545.97
1278.542, 31542.36
1280.470, 31551.75
1282.399, 31551.53
1284.327, 31548.67
1286.256, 31507.17
1288.184, 31361.41
1290.113, 31231.20
1292.041, 31176.11
1293.970, 31148.93
1295.898, 31169.45
1297.827, 31152.11
1299.755, 31063.42
1301.683, 30972.17
1303.612, 30883.81
1305.540, 30799.72
1307.469, 30722.82
1309.397, 30758.64
1311.326, 30846.26
1313.254, 30806.11
1315.183, 30725.87
1317.111, 30717.31
1319.040, 30737.54
1320.968, 30762.07
1322.897, 30784.35
1324.825, 30803.75
1326.754, 30833.69
1328.682, 30883.35
1330.610, 30861.78
1332.539, 30732.88
1334.467, 30796.95
1336.396, 31042.39
1338.324, 31035.44
1340.253, 30871.03
1342.181, 30860.72
1344.110, 30928.43
1346.038, 30995.40
1347.967, 31047.59
1349.895, 31046.94
1351.824, 31038.69
1353.752, 31049.12
1355.681, 31055.38
1357.609, 31054.23
1359.537, 31014.64
1361.466, 30934.76
1363.394, 30888.42
1365.323, 30868.34
1367.251, 30784.14
1369.180, 30683.96
1371.108, 30714.50
1373.037, 30784.88
1374.965, 30795.17
1376.894, 30760.56
1378.822, 30649.23
1380.751, 30563.93
1382.679, 30545.38
1384.608, 30550.41
1386.536, 30575.23
1388.464, 30533.68
1390.393, 30429.40
1392.321, 30409.93
1394.250, 30438.25
1396.178, 30358.29
1398.107, 30244.85
1400.035, 30221.91
1401.964, 30206.74
1403.892, 30110.87
1405.821, 30027.32
1407.749, 29989.55
1409.678, 29982.32
1411.606, 30011.92
1413.535, 30015.33
1415.463, 29986.53
1417.391, 29882.87
1419.320, 29757.37
1421.248, 29773.03
1423.177, 29835.21
1425.105, 29842.85
1427.034, 29819.42
1428.962, 29741.90
1430.891, 29708.90
1432.819, 29812.36
1434.748, 29812.27
1436.676, 29673.02
1438.605, 29678.81
1440.533, 29799.37
1442.462, 29812.43
1444.390, 29778.70
1446.319, 29806.60
1448.247, 29849.47
1450.176, 29898.76
1452.104, 29896.62
1454.032, 29777.52
1455.961, 29688.46
1457.889, 29655.27
1459.818, 29637.80
1461.746, 29634.18
1463.675, 29604.93
1465.603, 29570.15
1467.532, 29591.25
1469.460, 29609.50
1471.389, 29562.75
1473.317, 29523.21
1475.246, 29533.67
1477.174, 29521.98
1479.103, 29457.07
1481.031, 29462.74
1482.959, 29528.54
1484.888, 29512.41
1486.816, 29450.73
1488.745, 29402.68
1490.673, 29374.01
1492.602, 29380.41
1494.530, 29378.20
1496.459, 29351.02
1498.387, 29309.00
1500.316, 29249.42
1502.244, 29240.32
1504.173, 29269.45
1506.101, 29271.38
1508.030, 29263.93
1509.958, 29267.30
1511.886, 29286.63
1513.815, 29342.31
1515.743, 29357.19
1517.672, 29303.61
1519.600, 29278.29
1521.529, 29290.00
1523.457, 29306.37
1525.386, 29313.52
1527.314, 29255.27
1529.243, 29202.65
1531.171, 29248.66
1533.100, 29272.65
1535.028, 29220.95
1536.957, 29220.89
1538.885, 29288.53
1540.813, 29347.54
1542.742, 29391.86
1544.670, 29393.23
1546.599, 29410.15
1548.527, 29547.80
1550.456, 29668.18
1552.384, 29683.91
1554.313, 29739.78
1556.241, 29857.01
1558.170, 29910.85
1560.098, 29931.83
1562.027, 30094.99
1563.955, 30287.59
1565.884, 30360.13
1567.812, 30404.37
1569.740, 30452.32
1571.669, 30528.19
1573.597, 30638.90
1575.526, 30729.48
1577.454, 30796.05
1579.383, 30855.94
1581.311, 30863.85
1583.240, 30744.80
1585.168, 30582.05
1587.097, 30391.02
1589.025, 30231.16
1590.954, 30112.64
1592.882, 29992.31
1594.811, 29864.81
1596.739, 29701.96
1598.667, 29539.74
1600.596, 29390.26
1602.524, 29300.01
1604.453, 29364.49
1606.381, 29311.12
1608.310, 29115.48
1610.238, 28859.69
1612.167, 28602.41
1614.095, 28551.76
1616.024, 28519.20
1617.952, 28373.69
1619.881, 28171.95
1621.809, 27908.36
1623.738, 27673.53
1625.666, 27472.79
1627.594, 27330.35
1629.523, 27236.96
1631.451, 27222.13
1633.380, 27168.27
1635.308, 26990.59
1637.237, 26857.32
1639.165, 26804.46
1641.094, 26803.64
1643.022, 26846.25
1644.951, 26954.32
1646.879, 27018.72
1648.808, 26908.74
1650.736, 26828.85
1652.665, 26850.24
1654.593, 26818.78
1656.521, 26723.41
1658.450, 26606.81
1660.378, 26450.29
1662.307, 26195.66
1664.235, 25944.14
1666.164, 25737.29
1668.092, 25539.50
1670.021, 25345.68
1671.949, 25153.92
1673.878, 24977.10
1675.806, 24834.26
1677.735, 24735.72
1679.663, 24708.26
1681.592, 24672.21
1683.520, 24614.66
1685.448, 24534.02
1687.377, 24429.63
1689.305, 24265.91
1691.234, 24130.40
1693.162, 24116.42
1695.091, 24135.96
1697.019, 24180.95
1698.948, 24095.76
1700.876, 23921.60
1702.805, 23822.31
1704.733, 23779.69
1706.662, 23822.48
1708.590, 23814.44
1710.519, 23710.09
1712.447, 23620.95
1714.375, 23563.07
1716.304, 23614.64
1718.232, 23659.07
1720.161, 23561.87
1722.089, 23442.69
1724.018, 23329.54
1725.946, 23239.53
1727.875, 23173.60
1729.803, 23154.58
1731.732, 23131.83
1733.660, 23029.98
1735.589, 22958.59
1737.517, 22983.86
1739.446, 22943.15
1741.374, 22848.61
1743.302, 22758.83
1745.231, 22678.68
1747.159, 22608.46
1749.088, 22559.73
1751.016, 22557.65
1752.945, 22464.02
1754.873, 22331.61
1756.802, 22403.72
1758.730, 22499.52
1760.659, 22493.64
1762.587, 22449.96
1764.516, 22383.93
1766.444, 22234.98
1768.373, 22063.11
1770.301, 22046.62
1772.229, 22060.24
1774.158, 22048.32
1776.086, 21982.29
1778.015, 21856.00
1779.943, 21750.92
1781.872, 21679.67
1783.800, 21694.73
1785.729, 21699.53
1787.657, 21659.28
1789.586, 21581.08
1791.514, 21474.91
1793.443, 21390.62
1795.371, 21330.38
1797.300, 21310.62
1799.228, 21286.88
1801.156, 21248.83
1803.085, 21207.87
1805.013, 21175.07
1806.942, 21207.01
1808.870, 21206.67
1810.799, 21095.13
1812.727, 21000.76
1814.656, 20937.56
1816.584, 20839.51
1818.513, 20742.89
1820.441, 20723.08
1822.370, 20684.41
1824.298, 20590.61
1826.227, 20530.36
1828.155, 20496.46
1830.083, 20420.28
1832.012, 20356.26
1833.940, 20366.91
1835.869, 20370.03
1837.797, 20354.06
1839.726, 20321.06
1841.654, 20262.63
1843.583, 20145.48
1845.511, 20036.61
1847.440, 19962.80
1849.368, 19909.04
1851.297, 19867.09
1853.225, 19822.18
1855.154, 19771.02
1857.082, 19699.71
1859.010, 19650.75
1860.939, 19624.40
1862.867, 19587.52
1864.796, 19547.41
1866.724, 19515.53
1868.653, 19462.31
1870.581, 19375.87
1872.510, 19267.20
1874.438, 19163.48
1876.367, 19148.26
1878.295, 19139.39
1880.224, 19104.70
1882.152, 19050.61
1884.081, 18981.70
1886.009, 18921.32
1887.938, 18865.68
1889.866, 18799.74
1891.794, 18755.26
1893.723, 18741.83
1895.651, 18707.29
1897.580, 18652.88
1899.508, 18559.37
1901.437, 18479.01
1903.365, 18428.96
1905.294, 18371.89
1907.222, 18306.43
1909.151, 18245.75
1911.079, 18163.07
1913.008, 18033.08
1914.936, 17970.04
1916.865, 17961.52
1918.793, 17927.37
1920.721, 17896.98
1922.650, 17885.86
1924.578, 17835.82
1926.507, 17766.24
1928.435, 17755.89
1930.364, 17711.14
1932.292, 17539.60
1934.221, 17474.19
1936.149, 17506.66
1938.078, 17442.03
1940.006, 17353.22
1941.935, 17304.78
1943.863, 17292.24
1945.792, 17295.17
1947.720, 17208.81
1949.648, 17113.81
1951.577, 17136.60
1953.505, 17081.13
1955.434, 16916.17
1957.362, 16869.14
1959.291, 16855.03
1961.219, 16737.08
1963.148, 16634.35
1965.076, 16571.95
1967.005, 16618.53
1968.933, 16649.72
1970.862, 16454.28
1972.790, 16326.65
1974.719, 16345.52
1976.647, 16312.00
1978.575, 16241.39
1980.504, 16145.50
1982.432, 16093.51
1984.361, 16117.66
1986.289, 16072.39
1988.218, 16006.79
1990.146, 15998.90
1992.075, 15955.69
1994.003, 15848.20
1995.932, 15785.85
1997.860, 15735.34
1999.789, 15661.85
2001.717, 15581.71
2003.646, 15482.82
2005.574, 15453.58
2007.502, 15444.57
2009.431, 15383.52
2011.359, 15335.18
2013.288, 15311.82
2015.216, 15203.82
2017.145, 15086.98
2019.073, 15050.23
2021.002, 15016.98
2022.930, 14981.62
2024.859, 14932.83
2026.787, 14875.87
2028.716, 14822.27
2030.644, 14777.72
2032.573, 14740.18
2034.501, 14676.37
2036.429, 14619.23
2038.358, 14599.37
2040.286, 14585.87
2042.215, 14561.03
2044.143, 14464.87
2046.072, 14372.75
2048.000, 14329.61
2049.929, 14284.30
2051.857, 14233.82
2053.786, 14187.62
2055.714, 14137.45
2057.643, 14082.55
2059.571, 13996.70
2061.500, 13916.71
2063.428, 13940.24
2065.356, 13929.87
2067.285, 13850.38
2069.213, 13805.67
2071.142, 13773.78
2073.070, 13718.34
2074.999, 13679.55
2076.927, 13658.08
2078.856, 13565.17
2080.784, 13470.77
2082.713, 13449.66
2084.641, 13408.71
2086.570, 13341.92
2088.498, 13251.44
2090.427, 13181.19
2092.355, 13174.54
2094.283, 13135.53
2096.212, 13078.85
2098.140, 13036.40
2100.069, 13008.57
2101.997, 13002.75
2103.926, 12961.41
2105.854, 12909.33
2107.783, 12889.85
2109.711, 12839.58
2111.640, 12756.34
2113.568, 12681.75
2115.497, 12643.38
2117.425, 12676.65
2119.354, 12603.43
2121.282, 12477.21
2123.210, 12477.92
2125.139, 12459.91
2127.067, 12392.36
2128.996, 12364.11
2130.924, 12323.40
2132.853, 12234.96
2134.781, 12150.97
2136.710, 12072.12
2138.638, 12001.51
2140.567, 11965.23
2142.495, 11975.45
2144.424, 11954.05
2146.352, 11906.46
2148.281, 11875.36
2150.209, 11826.71
2152.137, 11750.47
2154.066, 11701.51
2155.994, 11666.26
2157.923, 11626.32
2159.851, 11574.47
2161.780, 11511.04
2163.708, 11505.39
2165.637, 11497.12
2167.565, 11431.54
2169.494, 11369.66
2171.422, 11335.58
2173.351, 11322.89
2175.279, 11264.70
2177.208, 11182.98
2179.136, 11125.34
2181.064, 11088.46
2182.993, 11083.25
2184.921, 11045.16
2186.850, 10986.04
2188.778, 10958.57
2190.707, 10911.60
2192.635, 10828.25
2194.564, 10789.47
2196.492, 10773.73
2198.421, 10736.45
2200.349, 10649.56
2202.278, 10601.28
2204.206, 10618.70
2206.135, 10631.37
2208.063, 10640.98
2209.991, 10540.22
2211.920, 10467.38
2213.848, 10476.51
2215.777, 10427.35
2217.705, 10373.22
2219.634, 10333.03
2221.562, 10284.40
2223.491, 10228.22
2225.419, 10168.03
2227.348, 10139.51
2229.276, 10143.31
2231.205, 10097.41
2233.133, 10038.49
2235.062, 9922.072
2236.990, 9860.587
2238.918, 9864.353
2240.847, 9872.121
2242.775, 9853.540
2244.704, 9799.710
2246.632, 9729.700
2248.561, 9676.014
2250.489, 9687.864
2252.418, 9669.579
2254.346, 9620.067
2256.275, 9589.471
2258.203, 9510.094
2260.132, 9413.948
2262.060, 9438.963
2263.989, 9430.307
2265.917, 9336.009
2267.845, 9300.132
2269.774, 9280.167
2271.702, 9221.728
2273.631, 9208.896
2275.559, 9222.165
2277.488, 9161.094
2279.416, 9117.371
2281.345, 9086.866
2283.273, 9056.045
2285.202, 9025.798
2287.130, 8953.545
2289.059, 8947.662
2290.987, 8936.715
2292.916, 8835.770
2294.844, 8798.112
2296.772, 8802.651
2298.701, 8773.448
2300.629, 8723.542
2302.558, 8666.246
2304.486, 8641.386
2306.415, 8612.343
2308.343, 8556.371
2310.272, 8498.896
2312.200, 8475.168
2314.129, 8484.551
2316.057, 8441.735
2317.986, 8371.347
2319.914, 8340.745
2321.843, 8323.870
2323.771, 8301.915
2325.699, 8267.755
2327.628, 8213.327
2329.556, 8147.100
2331.485, 8138.248
2333.413, 8134.305
2335.342, 8081.107
2337.270, 8025.115
2339.199, 7999.850
2341.127, 7960.600
2343.056, 7914.381
2344.984, 7888.149
2346.913, 7850.030
2348.841, 7814.923
2350.770, 7782.204
2352.698, 7809.845
2354.626, 7814.230
2356.555, 7732.399
2358.483, 7696.229
2360.412, 7666.106
2362.340, 7610.878
2364.269, 7569.546
2366.197, 7538.098
2368.126, 7540.425
2370.054, 7494.278
2371.983, 7444.857
2373.911, 7413.469
2375.840, 7372.292
2377.768, 7332.456
2379.697, 7285.168
2381.625, 7270.890
2383.553, 7280.662
2385.482, 7267.672
2387.410, 7227.187
2389.339, 7142.666
2391.267, 7114.949
2393.196, 7094.140
2395.124, 7055.575
2397.053, 7037.216
2398.981, 7016.752
2400.910, 6972.422
2402.838, 6938.304
2404.767, 6920.618
2406.695, 6897.919
2408.624, 6869.010
2410.552, 6835.902
2412.480, 6775.372
2414.409, 6729.610
2416.337, 6693.594
2418.266, 6658.576
2420.194, 6650.044
2422.123, 6654.461
2424.051, 6644.872
2425.980, 6612.696
2427.908, 6563.912
2429.837, 6526.151
2431.765, 6473.564
2433.694, 6403.116
2435.622, 6415.577
2437.551, 6429.664
2439.479, 6384.629
2441.407, 6350.465
2443.336, 6324.938
2445.264, 6297.342
2447.193, 6276.766
2449.121, 6259.181
2451.050, 6242.588
2452.978, 6197.918
2454.907, 6146.126
2456.835, 6122.886
2458.764, 6106.440
2460.692, 6085.849
2462.621, 6034.815
2464.549, 6025.123
2466.478, 6032.253
2468.406, 5942.657
2470.334, 5893.195
2472.263, 5894.702
2474.191, 5893.100
2476.120, 5872.324
2478.048, 5832.524
2479.977, 5799.609
2481.905, 5757.535
2483.834, 5710.003
2485.762, 5719.228
2487.691, 5700.589
2489.619, 5625.503
2491.548, 5612.065
2493.476, 5587.997
2495.405, 5524.604
2497.333, 5529.002
2499.261, 5522.890
2501.190, 5457.466
2503.118, 5430.010
2505.047, 5437.746
2506.975, 5458.361
2508.904, 5404.786
2510.832, 5370.268
2512.761, 5383.073
2514.689, 5340.978
2516.618, 5279.595
2518.546, 5231.792
2520.475, 5218.007
2522.403, 5211.456
2524.332, 5187.460
2526.260, 5156.700
2528.188, 5131.123
2530.117, 5094.852
2532.045, 5065.626
2533.974, 5046.110
2535.902, 5006.014
2537.831, 5004.900
2539.759, 4995.424
2541.688, 4937.854
2543.616, 4921.268
2545.545, 4913.671
2547.473, 4899.402
2549.402, 4876.454
2551.330, 4840.208
2553.259, 4800.468
2555.187, 4807.267
2557.115, 4787.059
2559.044, 4741.264
2560.972, 4733.446
2562.901, 4715.417
2564.829, 4685.004
2566.758, 4650.934
2568.686, 4629.362
2570.615, 4622.196
2572.543, 4602.267
2574.472, 4562.939
2576.400, 4507.186
2578.329, 4525.924
2580.257, 4532.667
2582.186, 4476.787
2584.114, 4447.902
2586.042, 4416.813
2587.971, 4378.796
2589.899, 4343.637
2591.828, 4326.845
2593.756, 4349.182
2595.685, 4307.377
2597.613, 4271.358
2599.542, 4267.814
2601.470, 4228.240
2603.399, 4180.908
2605.327, 4153.499
2607.256, 4199.289
2609.184, 4181.333
2611.113, 4111.742
2613.041, 4099.276
2614.969, 4082.361
2616.898, 4082.276
2618.826, 4033.041
2620.755, 4006.668
2622.683, 4001.258
2624.612, 4019.543
2626.540, 4013.198
2628.469, 3955.922
2630.397, 3922.267
2632.326, 3946.550
2634.254, 3929.394
2636.183, 3873.867
2638.111, 3854.808
2640.040, 3813.302
2641.968, 3830.819
2643.896, 3827.620
2645.825, 3768.909
2647.753, 3739.427
2649.682, 3739.782
2651.610, 3701.615
2653.539, 3651.575
2655.467, 3629.301
2657.396, 3629.257
2659.324, 3621.600
2661.253, 3594.524
2663.181, 3594.828
2665.110, 3565.188
2667.038, 3533.443
2668.967, 3513.090
2670.895, 3487.978
2672.823, 3472.497
2674.752, 3469.006
2676.680, 3426.920
2678.609, 3397.032
2680.537, 3393.775
2682.466, 3359.813
2684.394, 3317.896
2686.323, 3328.693
2688.251, 3333.808
2690.180, 3305.802
2692.108, 3311.018
2694.037, 3281.314
2695.965, 3248.435
2697.894, 3228.362
2699.822, 3196.267
2701.750, 3175.907
2703.679, 3170.580
2705.607, 3148.241
2707.536, 3144.146
2709.464, 3105.685
2711.393, 3073.952
2713.321, 3054.914
2715.250, 3059.961
2717.178, 3066.331
2719.107, 3015.929
2721.035, 2993.541
2722.964, 3008.064
2724.892, 2981.854
2726.821, 2975.056
2728.749, 2948.891
2730.677, 2896.143
2732.606, 2879.678
2734.534, 2869.558
2736.463, 2865.942
2738.391, 2858.145
2740.320, 2826.763
2742.248, 2802.315
2744.177, 2807.757
2746.105, 2787.665
2748.034, 2777.089
2749.962, 2775.851
2751.891, 2748.951
2753.819, 2728.694
2755.748, 2696.567
2757.676, 2672.572
2759.604, 2672.952
2761.533, 2664.198
2763.461, 2620.047
2765.390, 2596.119
2767.318, 2572.719
2769.247, 2540.559
2771.175, 2536.936
2773.104, 2557.613
2775.032, 2559.700
2776.961, 2539.291
2778.889, 2516.000
2780.818, 2486.203
2782.746, 2451.753
2784.675, 2435.875
2786.603, 2436.050
2788.531, 2410.901
2790.460, 2391.928
2792.388, 2376.070
2794.317, 2365.358
2796.245, 2352.155
2798.174, 2349.165
2800.102, 2361.406
2802.031, 2344.332
2803.959, 2303.484
2805.888, 2257.504
2807.816, 2275.884
2809.745, 2279.148
2811.673, 2268.344
2813.602, 2236.667
2815.530, 2223.113
2817.458, 2193.138
2819.387, 2139.896
2821.315, 2144.575
2823.244, 2143.471
2825.172, 2130.290
2827.101, 2122.354
2829.029, 2130.633
2830.958, 2128.442
2832.886, 2105.597
2834.815, 2087.636
2836.743, 2066.039
2838.672, 2043.203
2840.600, 2048.986
2842.529, 2038.476
2844.457, 2019.344
2846.385, 2010.365
2848.314, 1989.541
2850.242, 1975.345
2852.171, 1971.237
2854.099, 1937.448
2856.028, 1919.463
2857.956, 1914.841
2859.885, 1906.319
2861.813, 1893.509
2863.742, 1881.300
2865.670, 1865.175
2867.599, 1851.544
2869.527, 1851.878
2871.456, 1849.055
2873.384, 1828.297
2875.313, 1825.119
2877.241, 1820.736
2879.169, 1795.719
2881.098, 1789.568
2883.026, 1789.020
2884.955, 1782.671
2886.883, 1749.433
2888.812, 1741.369
2890.740, 1740.756
2892.669, 1713.528
2894.597, 1700.187
2896.526, 1676.322
2898.454, 1654.058
2900.383, 1673.456
2902.311, 1666.955
2904.240, 1647.521
2906.168, 1636.385
2908.096, 1628.365
2910.025, 1618.323
2911.953, 1602.439
2913.882, 1587.771
2915.810, 1569.331
2917.739, 1551.140
2919.667, 1551.588
2921.596, 1551.804
2923.524, 1531.566
2925.453, 1507.950
2927.381, 1498.322
2929.310, 1495.376
2931.238, 1476.241
2933.167, 1441.129
2935.095, 1428.620
2937.024, 1416.579
2938.952, 1412.610
2940.881, 1422.969
2942.809, 1399.171
2944.738, 1382.130
2946.666, 1370.118
2948.594, 1339.012
2950.523, 1330.940
2952.451, 1323.582
2954.380, 1306.097
2956.308, 1308.981
2958.237, 1307.574
2960.165, 1286.800
2962.094, 1259.315
2964.022, 1248.185
2965.951, 1243.941
2967.879, 1253.868
2969.808, 1219.735
2971.736, 1192.520
2973.665, 1183.316
2975.593, 1176.715
2977.521, 1155.614
2979.450, 1150.563
2981.378, 1167.856
2983.307, 1159.511
2985.235, 1131.486
2987.164, 1121.720
2989.092, 1109.204
2991.021, 1105.295
2992.949, 1103.562
2994.878, 1082.758
2996.806, 1056.340
2998.735, 1054.159
3000.663, 1057.261
3002.592, 1051.048
3004.520, 1035.782
3006.448, 1019.677
3008.377, 1011.857
3010.305, 1018.447
3012.234, 981.3901
3014.162, 974.4173
3016.091, 998.1403
3018.019, 986.9910
3019.948, 952.7561
3021.876, 951.9991
3023.805, 953.2184
3025.733, 941.2365
3027.662, 938.3799
3029.590, 930.2835
3031.519, 907.3067
3033.447, 904.6597
3035.375, 913.5166
3037.304, 913.2358
3039.232, 867.7220
3041.161, 874.3057
3043.089, 870.3975
3045.018, 851.2260
3046.946, 865.1979
3048.875, 859.2919
3050.803, 851.3030
3052.732, 842.7972
3054.660, 837.5401
3056.589, 835.6956
3058.517, 824.7717
3060.446, 812.7435
3062.374, 795.7264
3064.302, 778.3751
3066.231, 784.4749
3068.159, 801.2299
3070.088, 778.4828
3072.016, 776.0863
3073.945, 770.8235
3075.873, 749.8481
3077.802, 754.3077
3079.730, 741.2250
3081.659, 727.8254
3083.587, 722.6454
3085.516, 719.1962
3087.444, 705.3222
3089.373, 698.8216
3091.301, 699.0656
3093.229, 675.1479
3095.158, 667.0275
3097.086, 668.8101
3099.015, 655.9754
3100.943, 642.5203
3102.872, 638.3483
3104.800, 642.3663
3106.729, 636.5558
3108.657, 636.7282
3110.586, 631.2962
3112.514, 620.2577
3114.443, 593.6871
3116.371, 590.0576
3118.300, 593.0705
3120.228, 587.8349
3122.156, 574.7421
3124.085, 570.5733
3126.013, 564.2817
3127.942, 551.0559
3129.870, 546.9305
3131.799, 551.7667
3133.727, 552.3065
3135.656, 546.2584
3137.584, 532.2626
3139.513, 540.3421
3141.441, 538.1605
3143.370, 520.0173
3145.298, 498.7984
3147.227, 503.3561
3149.155, 499.6743
3151.083, 488.2777
3153.012, 484.5695
3154.940, 486.9072
3156.869, 485.0281
3158.797, 477.4211
3160.726, 467.5078
3162.654, 471.4663
3164.583, 474.1712
3166.511, 475.5902
3168.440, 466.0858
3170.368, 452.4382
3172.297, 454.8524
3174.225, 457.0323
3176.154, 436.5184
3178.082, 418.2378
3180.010, 427.2139
3181.939, 440.6252
3183.867, 425.6508
3185.796, 428.6121
3187.724, 435.6134
3189.653, 432.3400
3191.581, 418.0361
3193.510, 423.8504
3195.438, 408.4579
3197.367, 398.3844
3199.295, 403.2693
3201.224, 395.7545
3203.152, 397.2430
3205.081, 397.1761
3207.009, 393.9150
3208.938, 400.6038
3210.866, 393.2907
3212.794, 387.4037
3214.723, 383.5455
3216.651, 377.4384
3218.580, 375.2211
3220.508, 371.0323
3222.437, 368.4477
3224.365, 374.6914
3226.294, 353.9959
3228.222, 363.4108
3230.151, 370.7199
3232.079, 359.7922
3234.008, 364.2290
3235.936, 357.7618
3237.865, 359.2884
3239.793, 364.0710
3241.721, 341.6407
3243.650, 344.4537
3245.578, 342.3266
3247.507, 337.4139
3249.435, 340.9438
3251.364, 333.1484
3253.292, 335.3798
3255.221, 342.3446
3257.149, 345.2097
3259.078, 334.2143
3261.006, 328.3652
3262.935, 324.3948
3264.863, 319.6592
3266.792, 313.4175
3268.720, 307.0208
3270.648, 310.7389
3272.577, 313.4692
3274.505, 304.4793
3276.434, 298.2585
3278.362, 307.7360
3280.291, 312.6087
3282.219, 305.3321
3284.148, 300.7988
3286.076, 293.6370
3288.005, 284.3146
3289.933, 280.7564
3291.862, 290.2267
3293.790, 283.4918
3295.719, 281.7427
3297.647, 284.2155
3299.575, 284.2242
3301.504, 276.5684
3303.432, 263.7578
3305.361, 266.8023
3307.289, 275.5484
3309.218, 270.1749
3311.146, 281.5665
3313.075, 287.4713
3315.003, 274.9982
3316.932, 254.8953
3318.860, 264.1138
3320.789, 252.0066
3322.717, 256.3644
3324.646, 271.9068
3326.574, 278.0882
3328.502, 263.2709
3330.431, 244.1038
3332.359, 248.5840
3334.288, 263.1279
3336.216, 244.7610
3338.145, 232.7798
3340.073, 236.8578
3342.002, 245.9096
3343.930, 247.6077
3345.859, 230.5803
3347.787, 236.0030
3349.716, 237.3796
3351.644, 232.1000
3353.573, 228.3951
3355.501, 222.6286
3357.429, 225.5564
3359.358, 230.7166
3361.286, 229.3014
3363.215, 220.2243
3365.143, 222.2713
3367.072, 221.0141
3369.000, 214.0778
3370.929, 205.1080
3372.857, 200.8764
3374.786, 208.5043
3376.714, 212.4180
3378.643, 211.4757
3380.571, 208.7365
3382.500, 207.9075
3384.428, 212.3906
3386.356, 211.8668
3388.285, 208.1660
3390.213, 204.3656
3392.142, 195.0321
3394.070, 194.7392
3395.999, 204.1072
3397.927, 210.1722
3399.856, 201.6330
3401.784, 194.2732
3403.713, 189.8227
3405.641, 189.2509
3407.570, 187.2716
3409.498, 178.0262
3411.427, 190.3047
3413.355, 191.7079
3415.283, 187.2017
3417.212, 183.5520
3419.140, 182.6160
3421.069, 177.1592
3422.997, 172.8969
3424.926, 181.4025
3426.854, 191.2977
3428.783, 179.3248
3430.711, 168.3421
3432.640, 180.4372
3434.568, 179.8463
3436.497, 164.8413
3438.425, 163.5492
3440.354, 183.0872
3442.282, 167.6617
3444.210, 155.1580
3446.139, 158.1517
3448.067, 161.2026
3449.996, 161.7294
3451.924, 172.4763
3453.853, 171.9324
3455.781, 164.3838
3457.710, 165.8037
3459.638, 162.0837
3461.567, 156.1732
3463.495, 159.0968
3465.424, 159.9542
3467.352, 148.4246
3469.281, 153.9021
3471.209, 154.4917
3473.137, 151.7082
3475.066, 150.8839
3476.994, 151.8799
3478.923, 138.6687
3480.851, 143.8588
3482.780, 144.6970
3484.708, 143.1978
3486.637, 142.8230
3488.565, 138.5477
3490.494, 131.4631
3492.422, 144.0130
3494.351, 144.7916
3496.279, 131.9678
3498.208, 130.2296
3500.136, 136.1556
3502.064, 138.7242
3503.993, 134.5915
3505.921, 131.4864
3507.850, 133.8808
3509.778, 128.3693
3511.707, 141.2543
3513.635, 139.7601
3515.564, 141.4266
3517.492, 144.8554
3519.421, 120.6961
3521.349, 125.1123
3523.278, 126.5432
3525.206, 130.7065
3527.135, 134.2242
3529.063, 129.9120
3530.991, 124.5658
3532.920, 127.9493
3534.848, 119.4586
3536.777, 121.3493
3538.705, 131.8120
3540.634, 114.7887
3542.562, 119.3528
3544.491, 116.1156
3546.419, 120.5158
3548.348, 120.6228
3550.276, 106.2982
3552.205, 115.7286
3554.133, 115.1578
3556.062, 111.3835
3557.990, 104.2647
3559.918, 101.7270
3561.847, 114.3468
3563.775, 114.1893
3565.704, 112.9313
3567.632, 109.3308
3569.561, 110.7881
3571.489, 115.0576
3573.418, 105.8750
3575.346, 100.3631
3577.275, 109.5035
3579.203, 112.6465
3581.132, 105.5230
3583.060, 100.8807
3584.989, 117.5667
3586.917, 96.94830
3588.845, 99.58115
3590.774, 103.8563
3592.702, 104.8765
3594.631, 106.4148
3596.559, 89.35054
3598.488, 82.59706
3600.416, 96.83807
3602.345, 102.6013
3604.273, 101.7745
3606.202, 105.3012
3608.130, 87.79625
3610.059, 80.36409
3611.987, 98.46022
3613.916, 107.6748
3615.844, 103.0046
3617.772, 98.32469
3619.701, 93.34315
3621.629, 90.65826
3623.558, 92.54308
3625.486, 94.77914
3627.415, 97.86388
3629.343, 100.3074
3631.272, 84.47688
3633.200, 92.71587
3635.129, 87.13041
3637.057, 92.54127
3638.986, 98.78856
3640.914, 90.90674
3642.843, 84.15915
3644.771, 82.47253
3646.699, 89.95421
3648.628, 91.64808
3650.556, 87.94952
3652.485, 85.81177
3654.413, 89.00709
3656.342, 91.60525
3658.270, 85.18120
3660.199, 87.27199
3662.127, 93.31472
3664.056, 94.21907
3665.984, 88.09048
3667.913, 84.83400
3669.841, 79.86253
3671.770, 76.85757
3673.698, 76.17298
3675.626, 81.05304
3677.555, 86.85545
3679.483, 80.40366
3681.412, 89.94694
3683.340, 76.41942
3685.269, 73.09826
3687.197, 79.02633
3689.126, 80.89887
3691.054, 76.55146
3692.983, 87.39948
3694.911, 80.56982
3696.840, 81.98502
3698.768, 79.04215
3700.697, 75.72162
3702.625, 73.85730
3704.553, 63.85064
3706.482, 74.60130
3708.410, 78.52471
3710.339, 78.67770
3712.267, 74.19054
3714.196, 68.45650
3716.124, 65.24316
3718.053, 65.13987
3719.981, 78.18639
3721.910, 66.42994
3723.838, 63.21371
3725.767, 66.58063
3727.695, 74.95918
3729.624, 83.88157
3731.552, 74.61077
3733.480, 69.61757
3735.409, 76.58150
3737.337, 69.22788
3739.266, 65.60353
3741.194, 71.00042
3743.123, 75.62192
3745.051, 76.00785
3746.980, 69.61739
3748.908, 63.86913
3750.837, 71.96470
3752.765, 71.55185
3754.694, 65.89024
3756.622, 68.95869
3758.551, 77.69821
3760.479, 64.18630
3762.407, 83.68808
3764.336, 74.33902
3766.264, 67.33004
3768.193, 67.94580
3770.121, 65.73850
3772.050, 62.62140
3773.978, 65.88470
3775.907, 65.77994
3777.835, 70.52254
3779.764, 73.05013
3781.692, 62.77760
3783.621, 58.58080
3785.549, 74.07114
3787.478, 74.83926
3789.406, 64.29418
3791.334, 66.01690
3793.263, 63.82393
3795.191, 63.68749
3797.120, 69.67972
3799.048, 73.35475
3800.977, 66.93692
3802.905, 64.65001
3804.834, 69.98453
3806.762, 68.49695
3808.691, 64.13293
3810.619, 64.62232
3812.548, 67.22723
3814.476, 66.35683
3816.405, 63.07904
3818.333, 66.28603
3820.261, 70.56684
3822.190, 70.38811
3824.118, 55.79949
3826.047, 54.12621
3827.975, 61.60963
3829.904, 63.47942
3831.832, 65.06312
3833.761, 63.15242
3835.689, 69.20448
3837.618, 60.03041
3839.546, 63.12571
3841.475, 61.38374
3843.403, 53.72969
3845.332, 52.31395
3847.260, 59.50182
3849.188, 66.81505
3851.117, 68.21111
3853.045, 62.39192
3854.974, 55.93728
3856.902, 53.21446
3858.831, 54.92811
3860.759, 58.74833
3862.688, 58.88263
3864.616, 50.34840
3866.545, 47.05844
3868.473, 59.89906
3870.402, 54.10251
3872.330, 55.47637
3874.259, 64.23010
3876.187, 65.58506
3878.115, 60.07283
3880.044, 57.97145
3881.972, 48.21916
3883.901, 60.89967
3885.829, 53.34658
3887.758, 58.75518
3889.686, 62.54743
3891.615, 61.23613
3893.543, 56.24902
3895.472, 48.98341
3897.400, 44.71276
3899.329, 49.71438
3901.257, 47.83482
3903.186, 54.22021
3905.114, 59.06017
3907.042, 50.01750
3908.971, 51.54389
3910.899, 59.51497
3912.828, 59.32476
3914.756, 54.50037
3916.685, 52.61193
3918.613, 48.58205
3920.542, 51.07365
3922.470, 56.13378
3924.399, 63.52265
3926.327, 59.66529
3928.256, 53.55637
3930.184, 52.18590
3932.113, 56.63836
3934.041, 66.72645
3935.969, 55.46369
3937.898, 56.58563
3939.826, 54.72006
3941.755, 58.74070
3943.683, 52.42745
3945.612, 49.91687
3947.540, 50.14874
3949.469, 47.64663
3951.397, 47.84782
3953.326, 54.50183
3955.254, 52.96949
3957.183, 50.34246
3959.111, 59.38742
3961.040, 59.07929
3962.968, 50.73042
3964.896, 54.32163
3966.825, 59.31306
3968.753, 58.34501
3970.682, 57.77534
3972.610, 58.97362
3974.539, 55.41591
3976.467, 49.37264
3978.396, 53.21204
3980.324, 45.34382
3982.253, 55.32417
3984.181, 58.12698
3986.110, 49.68203
3988.038, 46.49659
3989.967, 49.76488
3991.895, 51.34080
3993.823, 51.03571
3995.752, 49.49146
3997.680, 55.13925
3999.609, 50.20450
4001.537, 48.88892
4003.466, 52.99987
4005.394, 49.86450
4007.323, 42.87401
4009.251, 60.57409
4011.180, 65.20428
4013.108, 45.78930
4015.037, 73.51301
4016.965, 134.7160
4018.894, 53.86674
4020.822, 57.13471
4022.750, 55.10918
4024.679, 47.35027
4026.607, 44.98659
4028.536, 47.27876
4030.464, 54.83148
4032.393, 48.81902
4034.321, 37.24113
4036.250, 40.86569
4038.178, 51.52341
4040.107, 49.84685
4042.035, 49.68802
4043.964, 43.88003
4045.892, 49.12366
4047.821, 47.57192
4049.749, 53.07757
4051.677, 50.11672
4053.606, 46.83669
4055.534, 44.69389
4057.463, 43.70030
4059.391, 43.54301
4061.320, 44.66449
4063.248, 44.81304
4065.177, 39.39381
4067.105, 39.53950
4069.034, 51.03982
4070.962, 56.72492
4072.891, 46.59821
4074.819, 37.94520
4076.748, 45.21984
4078.676, 46.50270
4080.604, 46.47015
4082.533, 51.91110
4084.461, 52.27324
4086.390, 46.43172
4088.318, 45.00766
4090.247, 48.13913
4092.175, 48.56549
4094.104, 49.85884
4096.032, 44.51550
4097.961, 54.46241
4099.889, 43.71780
4101.818, 43.53146
4103.746, 45.75527
4105.675, 45.80453
4107.603, 50.68438
4109.532, 41.18138
4111.460, 39.54404
4113.389, 46.90348
4115.317, 44.61887
4117.246, 43.67407
4119.174, 49.02734
4121.103, 41.46022
4123.031, 40.90329
4124.959, 56.88625
4126.888, 41.33276
4128.816, 39.82634
4130.745, 45.68608
4132.673, 46.18211
4134.602, 50.05838
4136.530, 50.33073
4138.458, 42.37016
4140.387, 44.39586
4142.315, 46.02264
4144.244, 42.75859
4146.172, 37.70481
4148.101, 44.80288
4150.029, 54.43386
4151.958, 46.13510
4153.886, 35.89082
4155.815, 37.15859
4157.743, 44.48695
4159.672, 42.80107
4161.600, 38.66040
4163.529, 36.98215
4165.457, 60.53743
4167.386, 41.11617
4169.314, 49.61741
4171.243, 43.56198
4173.171, 38.37539
4175.100, 42.73915
4177.028, 44.92984
4178.957, 45.93757
4180.885, 40.14900
4182.813, 36.95149
4184.742, 47.15791
4186.670, 49.78639
4188.599, 39.26168
4190.527, 32.12945
4192.456, 33.98076
4194.384, 48.01169
4196.313, 40.94020
4198.241, 38.69614
4200.169, 36.64180
4202.098, 36.58580
4204.026, 36.02604
4205.955, 46.13071
4207.883, 48.30466
4209.812, 37.44955
4211.740, 45.87123
4213.669, 42.34059
4215.597, 42.58343
4217.526, 44.48025
4219.454, 33.73631
4221.383, 44.67032
4223.311, 51.66927
4225.240, 43.88074
4227.168, 48.27927
4229.097, 44.99326
4231.025, 36.39543
4232.954, 37.85293
4234.882, 42.96669
4236.811, 50.48237
4238.739, 46.53297
4240.667, 34.96096
4242.596, 43.77830
4244.524, 42.31037
4246.453, 34.79246
4248.381, 37.25971
4250.310, 47.74258
4252.238, 48.06623
4254.167, 35.53695
4256.095, 36.69295
4258.023, 45.31365
4259.952, 37.43972
4261.880, 44.42074
4263.809, 49.94198
4265.737, 47.95758
4267.666, 31.86986
4269.594, 47.06969
4271.523, 26.46589
4273.451, 32.75601
4275.380, 25.68433
4277.308, 45.69711
4279.237, 46.91368
4281.165, 41.39235
4283.094, 48.54029
4285.022, 43.47710
4286.951, 40.81729
4288.879, 41.99515
4290.808, 39.30510
4292.736, 47.95074
4294.665, 37.22783
4296.593, 32.38351
4298.521, 40.38054
4300.450, 42.31813
##END=



